time (s)	coil I (A)	last det (V)	int current (uC)
1447.113437	1.423297	0.318042	634.790527
1447.114350	1.917078	0.318042	2385.082520
1447.115251	1.879735	0.318042	4078.723633
1447.116197	1.015353	0.318042	5039.247070
1447.117120	0.101462	0.318042	5132.896973
1447.118021	0.096987	0.318042	5220.282715
1447.118908	0.097072	0.318042	5306.385254
1447.119857	0.097094	0.318042	5398.526855
1447.120768	0.097035	0.318042	5486.925781
1447.121669	0.097064	0.318042	5574.380859
1447.122554	0.097057	0.318042	5660.276367
1447.123496	0.097017	0.318042	5751.666016
1447.124401	0.096984	0.318042	5839.436035
1447.125291	0.097017	0.318042	5925.780762
1448.129028	1.450635	0.350486	722.416077
1448.129941	1.917283	0.350486	2472.895264
1448.130843	1.876663	0.350486	4165.645020
1448.131740	0.995336	0.350486	5058.460937
1448.132674	0.100693	0.350486	5152.508301
1448.133576	0.097020	0.350486	5240.020508
1448.134482	0.097104	0.350486	5327.997070
1448.135390	0.097178	0.350486	5416.234375
1448.136324	0.097112	0.350486	5506.937012
1448.137229	0.097017	0.350486	5594.736816
1448.138118	0.097075	0.350486	5681.036621
1448.139058	0.097064	0.350486	5772.276855
1448.139961	0.097083	0.350486	5859.942383
1448.140853	0.097123	0.350486	5946.575684
1449.125875	1.455066	0.325365	682.425903
1449.126789	1.917257	0.325365	2434.798828
1449.127701	1.877849	0.325365	4147.397461
1449.128605	0.999565	0.325365	5051.004395
1449.129548	0.100697	0.325365	5145.961914
1449.130456	0.097002	0.325365	5234.039551
1449.131349	0.097072	0.325365	5320.724609
1449.132295	0.097126	0.325365	5412.606445
1449.133195	0.097112	0.325365	5500.006836
1449.134093	0.097137	0.325365	5587.236328
1449.134979	0.097115	0.325365	5673.280762
1449.135913	0.097115	0.325365	5763.986816
1449.136815	0.097079	0.325365	5851.551758
1449.137718	0.097086	0.325365	5939.220703
1450.139340	1.412739	0.345128	621.605225
1450.140295	1.917235	0.345128	2452.564941
1450.141206	1.877194	0.345128	4162.688477
1450.142103	1.005842	0.345128	5064.928711
1450.143037	0.102319	0.345128	5160.495117
1450.143941	0.097028	0.345128	5248.208008
1450.144862	0.097061	0.345128	5337.600586
1450.145749	0.097064	0.345128	5423.696289
1450.146701	0.097101	0.345128	5516.136230
1450.147600	0.097039	0.345128	5603.374023
1450.148486	0.097020	0.345128	5689.333984
1450.149397	0.097053	0.345128	5777.749512
1450.150325	0.097094	0.345128	5867.852051
1450.151229	0.097068	0.345128	5955.601562
1451.142088	1.401811	0.326002	611.189819
1451.143055	1.917568	0.326002	2465.478516
1451.143965	1.877040	0.326002	4173.584961
1451.144864	0.997471	0.326002	5070.311035
1451.145824	0.102198	0.326002	5168.421387
1451.146727	0.097006	0.326002	5256.017578
1451.147617	0.096995	0.326002	5342.342773
1451.148552	0.097156	0.326002	5433.183594
1451.149457	0.097119	0.326002	5521.076172
1451.150372	0.097009	0.326002	5609.839844
1451.151270	0.097094	0.326002	5697.029785
1451.152194	0.097090	0.326002	5786.740723
1451.153095	0.097028	0.326002	5874.162598
1451.153997	0.097079	0.326002	5961.727539
1452.149841	1.416401	0.346441	628.882141
1452.150752	1.917374	0.346441	2375.610107
1452.151658	1.879197	0.346441	4078.162354
1452.152632	0.954053	0.346441	5007.409668
1452.153541	0.100920	0.346441	5099.146484
1452.154440	0.096973	0.346441	5186.324707
1452.155355	0.097108	0.346441	5275.178711
1452.156261	0.097101	0.346441	5363.151855
1452.157158	0.096973	0.346441	5450.136230
1452.158045	0.097039	0.346441	5536.209473
1452.158988	0.097145	0.346441	5627.816895
1452.159886	0.097068	0.346441	5714.983887
1452.160782	0.097068	0.346441	5801.956543
1452.161701	0.097002	0.346441	5891.101562
1453.161417	1.403961	0.329180	614.934998
1453.162376	1.917356	0.329180	2453.679199
1453.163293	1.876864	0.329180	4174.763672
1453.164197	0.986107	0.329180	5066.204590
1453.165131	0.101869	0.329180	5161.350098
1453.166038	0.097042	0.329180	5249.367187
1453.166941	0.097024	0.329180	5336.979980
1453.167831	0.097075	0.329180	5423.376953
1453.168778	0.097013	0.329180	5515.248047
1453.169680	0.096969	0.329180	5602.713867
1453.170579	0.096995	0.329180	5689.912109
1453.171467	0.097046	0.329180	5776.088867
1453.172414	0.097130	0.329180	5868.071289
1453.173327	0.097031	0.329180	5956.660645
1454.159225	1.423773	0.358546	689.106201
1454.160147	1.916968	0.358546	2456.550293
1454.161079	1.875333	0.358546	4204.360840
1454.161983	0.943898	0.358546	5057.644531
1454.162937	0.099349	0.358546	5152.423828
1454.163842	0.096940	0.358546	5240.154297
1454.164762	0.097170	0.358546	5329.551270
1454.165652	0.097024	0.358546	5415.902344
1454.166601	0.097053	0.358546	5508.005859
1454.167499	0.097020	0.358546	5595.129883
1454.168385	0.097068	0.358546	5681.131836
1454.169303	0.097152	0.358546	5770.317383
1454.170215	0.097053	0.358546	5858.830078
1454.171112	0.097050	0.358546	5945.883301
1455.178590	1.431599	0.322223	645.651184
1455.179509	1.917275	0.322223	2407.627197
1455.180417	1.878604	0.322223	4113.399414
1455.181324	1.029529	0.322223	5047.182129
1455.182270	0.101221	0.322223	5142.937012
1455.183171	0.096962	0.322223	5230.299316
1455.184063	0.097115	0.322223	5316.926270
1455.184997	0.097170	0.322223	5407.683594
1455.185897	0.097192	0.322223	5495.156738
1455.186791	0.097148	0.322223	5582.007324
1455.187679	0.097097	0.322223	5668.229492
1455.188613	0.097061	0.322223	5758.884277
1455.189520	0.097104	0.322223	5846.958008
1455.190424	0.097042	0.322223	5934.684082
1456.170323	1.405719	0.366933	619.922058
1456.171216	1.916049	0.366933	2330.953369
1456.172174	1.878453	0.366933	4130.511719
1456.173102	0.989934	0.366933	5049.170410
1456.173992	0.102133	0.366933	5140.068359
1456.174926	0.097086	0.366933	5230.747070
1456.175838	0.097068	0.366933	5319.272949
1456.176744	0.097134	0.366933	5407.276367
1456.177636	0.097137	0.366933	5493.922852
1456.178594	0.097218	0.366933	5587.057617
1456.179501	0.097141	0.366933	5675.164551
1456.180399	0.097156	0.366933	5762.410645
1456.181327	0.097112	0.366933	5852.530273
1456.182236	0.097141	0.366933	5940.831543
1457.194319	1.399402	0.302521	615.736816
1457.195260	1.916166	0.302521	2418.848877
1457.196188	1.877073	0.302521	4160.772461
1457.197102	0.977765	0.302521	5054.449707
1457.197993	0.101851	0.302521	5145.198730
1457.198950	0.097126	0.302521	5238.148926
1457.199853	0.096973	0.302521	5325.715332
1457.200745	0.097024	0.302521	5412.260742
1457.201673	0.097079	0.302521	5502.350098
1457.202584	0.097035	0.302521	5590.749023
1457.203483	0.097061	0.302521	5678.006348
1457.204374	0.096991	0.302521	5764.425293
1457.205310	0.097112	0.302521	5855.321777
1457.206224	0.097039	0.302521	5944.015137
1458.185454	1.463361	0.361112	695.096252
1458.186368	1.917305	0.361112	2447.512695
1458.187261	1.878867	0.361112	4125.340820
1458.188214	0.960586	0.361112	5040.779297
1458.189123	0.100876	0.361112	5132.476074
1458.190024	0.096998	0.361112	5219.871582
1458.190912	0.097108	0.361112	5306.103516
1458.191848	0.097108	0.361112	5396.996582
1458.192748	0.097042	0.361112	5484.334473
1458.193644	0.097042	0.361112	5571.284180
1458.194590	0.097134	0.361112	5663.172852
1458.195486	0.097130	0.361112	5750.201660
1458.196385	0.097013	0.361112	5837.416504
1458.197277	0.097013	0.361112	5923.952148
1459.203523	1.389781	0.303241	601.775391
1459.204481	1.915287	0.303241	2436.620117
1459.205403	1.876783	0.303241	4167.014648
1459.206316	0.972766	0.303241	5055.149902
1459.207204	0.101851	0.303241	5145.593262
1459.208167	0.097101	0.303241	5239.101562
1459.209067	0.097072	0.303241	5326.465820
1459.209962	0.097057	0.303241	5413.331543
1459.210847	0.097053	0.303241	5499.223633
1459.211774	0.097104	0.303241	5589.239258
1459.212685	0.097020	0.303241	5677.624512
1459.213581	0.097123	0.303241	5764.646484
1459.214513	0.097115	0.303241	5855.158203
1459.215418	0.097148	0.303241	5943.077637
1460.203472	1.404961	0.363143	619.587769
1460.204427	1.915697	0.363143	2449.078369
1460.205345	1.877003	0.363143	4172.167480
1460.206254	0.985627	0.363143	5068.102539
1460.207145	0.102118	0.363143	5159.089844
1460.208107	0.096998	0.363143	5252.402344
1460.209002	0.097020	0.363143	5339.235352
1460.209908	0.097028	0.363143	5427.142578
1460.210796	0.097083	0.363143	5513.352051
1460.211740	0.097115	0.363143	5605.029297
1460.212643	0.097061	0.363143	5692.674805
1460.213543	0.097042	0.363143	5780.012695
1460.214465	0.097119	0.363143	5869.556641
1460.215368	0.097075	0.363143	5957.215332
1461.211612	1.423531	0.312382	640.589111
1461.212537	1.916887	0.312382	2413.709717
1461.213434	1.879127	0.312382	4099.287109
1461.214400	0.966368	0.312382	5032.798828
1461.215301	0.101235	0.312382	5124.011719
1461.216194	0.096954	0.312382	5210.591797
1461.217084	0.096921	0.312382	5296.852051
1461.218020	0.097112	0.312382	5387.748535
1461.218925	0.097090	0.312382	5475.614746
1461.219828	0.097046	0.312382	5563.247070
1461.220732	0.097006	0.312382	5650.939941
1461.221654	0.097079	0.312382	5740.446777
1461.222559	0.097002	0.312382	5828.233398
1461.223450	0.097009	0.312382	5914.668457
1462.221536	1.405920	0.363767	649.535217
1462.222470	1.916609	0.363767	2439.647949
1462.223385	1.876644	0.363767	4156.777344
1462.224285	0.995050	0.363767	5052.322266
1462.225230	0.101243	0.363767	5147.996582
1462.226138	0.096987	0.363767	5236.061035
1462.227036	0.097046	0.363767	5323.208008
1462.227970	0.097094	0.363767	5413.893555
1462.228871	0.097075	0.363767	5501.358398
1462.229768	0.097115	0.363767	5588.471191
1462.230655	0.097046	0.363767	5674.550781
1462.231595	0.097057	0.363767	5765.784180
1462.232499	0.097013	0.363767	5853.483887
1462.233407	0.097017	0.363767	5941.575195
1463.222867	1.413080	0.321945	634.472839
1463.223758	1.915580	0.321945	2341.254639
1463.224742	1.876780	0.321945	4188.005859
1463.225658	0.952071	0.321945	5060.103516
1463.226556	0.100858	0.321945	5150.674316
1463.227482	0.097013	0.321945	5240.508301
1463.228389	0.097075	0.321945	5328.555664
1463.229287	0.097046	0.321945	5415.703125
1463.230178	0.097035	0.321945	5502.161133
1463.231135	0.097156	0.321945	5595.139160
1463.232036	0.097104	0.321945	5682.630371
1463.232939	0.097101	0.321945	5770.312500
1463.233829	0.097035	0.321945	5856.673340
1463.234766	0.097068	0.321945	5947.625977
1464.238305	1.426571	0.353600	643.383545
1464.239205	1.916950	0.353600	2368.638184
1464.240100	1.880105	0.353600	4051.332031
1464.241068	1.005011	0.353600	5024.182617
1464.241967	0.102144	0.353600	5116.009766
1464.242875	0.096962	0.353600	5204.050781
1464.243786	0.097050	0.353600	5292.462891
1464.244717	0.097141	0.353600	5382.901367
1464.245621	0.097006	0.353600	5470.594238
1464.246518	0.097020	0.353600	5557.621582
1464.247445	0.097097	0.353600	5647.630859
1464.248347	0.097119	0.353600	5735.232422
1464.249243	0.097068	0.353600	5822.205078
1464.250129	0.096976	0.353600	5908.125977
1465.237382	1.464565	0.334239	729.353577
1465.238308	1.916971	0.334239	2504.469238
1465.239213	1.875886	0.334239	4202.146484
1465.240111	0.961692	0.334239	5065.746094
1465.241048	0.099968	0.334239	5159.416504
1465.241955	0.096958	0.334239	5247.357422
1465.242852	0.097009	0.334239	5334.374512
1465.243783	0.097097	0.334239	5424.771973
1465.244696	0.097123	0.334239	5513.445312
1465.245605	0.097075	0.334239	5601.686523
1465.246495	0.097013	0.334239	5688.027832
1465.247438	0.097079	0.334239	5779.573242
1465.248342	0.097108	0.334239	5867.358887
1465.249235	0.097013	0.334239	5953.991211
1466.251472	1.418060	0.354550	632.454895
1466.252421	1.916429	0.354550	2451.146484
1466.253362	1.875359	0.354550	4215.859375
1466.254268	0.936086	0.354550	5063.953613
1466.255207	0.100745	0.354550	5158.552734
1466.256118	0.097009	0.354550	5246.928223
1466.257040	0.097086	0.354550	5336.441895
1466.257928	0.097057	0.354550	5422.628418
1466.258873	0.097086	0.354550	5514.375000
1466.259794	0.097009	0.354550	5603.720703
1466.260682	0.097053	0.354550	5689.903809
1466.261628	0.097123	0.354550	5781.782227
1466.262522	0.097053	0.354550	5868.547852
1466.263434	0.097104	0.354550	5957.106934
1467.251664	1.415226	0.338550	622.699402
1467.252570	1.916854	0.338550	2359.369141
1467.253466	1.880493	0.338550	4044.291016
1467.254413	1.041031	0.338550	5030.147949
1467.255321	0.102891	0.338550	5123.572754
1467.256220	0.096951	0.338550	5210.731445
1467.257109	0.097028	0.338550	5296.988770
1467.258057	0.097064	0.338550	5389.005859
1467.258955	0.097028	0.338550	5476.136719
1467.259843	0.097050	0.338550	5562.316895
1467.260777	0.097174	0.338550	5653.077637
1467.261671	0.097119	0.338550	5739.902344
1467.262572	0.097101	0.338550	5827.390137
1467.263476	0.097039	0.338550	5915.112793
1468.263926	1.461907	0.348806	691.481934
1468.264843	1.916990	0.348806	2449.361328
1468.265755	1.877095	0.348806	4161.271484
1468.266659	0.975194	0.348806	5042.846680
1468.267619	0.099796	0.348806	5138.650879
1468.268526	0.096998	0.348806	5226.628418
1468.269423	0.097101	0.348806	5313.728027
1468.270357	0.097094	0.348806	5404.413574
1468.271265	0.097053	0.348806	5492.538086
1468.272159	0.097006	0.348806	5579.261230
1468.273047	0.097072	0.348806	5665.460937
1468.273985	0.097152	0.348806	5756.589844
1468.274890	0.097039	0.348806	5844.409668
1468.275801	0.097031	0.348806	5932.805176
1469.266675	1.418049	0.340544	669.319275
1469.267592	1.917356	0.340544	2427.534668
1469.268505	1.877131	0.340544	4141.355469
1469.269406	1.005696	0.340544	5047.487305
1469.270348	0.101722	0.340544	5143.309570
1469.271252	0.096962	0.340544	5230.962891
1469.272148	0.097002	0.340544	5317.876465
1469.273036	0.096965	0.340544	5403.981445
1469.273975	0.097115	0.340544	5495.172852
1469.274882	0.097053	0.340544	5583.200195
1469.275781	0.097094	0.340544	5670.487305
1469.276707	0.097028	0.340544	5760.334961
1469.277614	0.097039	0.340544	5848.349121
1469.278524	0.096998	0.340544	5936.617676
1470.275547	1.409608	0.352323	624.456421
1470.276445	1.916682	0.352323	2345.636963
1470.277361	1.879241	0.352323	4067.021484
1470.278321	0.985441	0.352323	5013.044434
1470.279230	0.101298	0.352323	5105.124023
1470.280117	0.096932	0.352323	5191.103027
1470.281047	0.097002	0.352323	5281.314941
1470.281960	0.096965	0.352323	5369.844238
1470.282885	0.097108	0.352323	5459.669434
1470.283770	0.097053	0.352323	5545.561523
1470.284732	0.097002	0.352323	5638.877441
1470.285627	0.096973	0.352323	5725.667969
1470.286515	0.097035	0.352323	5811.834961
1470.287434	0.097086	0.352323	5901.057129
1471.281763	1.412889	0.342163	647.103333
1471.282655	1.916825	0.342163	2356.911133
1471.283598	1.878439	0.342163	4128.278809
1471.284541	0.947234	0.342163	5021.520508
1471.285448	0.100565	0.342163	5112.732910
1471.286339	0.096888	0.342163	5199.060547
1471.287273	0.097115	0.342163	5289.766602
1471.288184	0.096910	0.342163	5378.051758
1471.289086	0.096969	0.342163	5465.517578
1471.289974	0.096910	0.342163	5551.574219
1471.290914	0.097057	0.342163	5642.807617
1471.291809	0.096947	0.342163	5729.575195
1471.292697	0.097009	0.342163	5815.719238
1471.293624	0.096980	0.342163	5905.619629
1472.287572	1.416310	0.356834	627.425232
1472.288480	1.917030	0.356834	2368.088379
1472.289372	1.879761	0.356834	4044.834961
1472.290354	0.968276	0.356834	4995.682617
1472.291265	0.101393	0.356834	5088.051270
1472.292157	0.096965	0.356834	5174.544434
1472.293085	0.097046	0.356834	5264.603027
1472.293997	0.097148	0.356834	5353.202637
1472.294905	0.096947	0.356834	5441.230469
1472.295801	0.097035	0.356834	5528.173828
1472.296728	0.097075	0.356834	5618.162598
1472.297637	0.097101	0.356834	5706.427246
1472.298538	0.097072	0.356834	5793.888672
1472.299428	0.096991	0.356834	5880.210449
1473.295685	1.394187	0.352129	605.077148
1473.296650	1.916572	0.352129	2454.569336
1473.297558	1.877010	0.352129	4158.895020
1473.298470	0.987759	0.352129	5059.730957
1473.299357	0.102378	0.352129	5150.540039
1473.300319	0.097028	0.352129	5243.880371
1473.301221	0.097020	0.352129	5331.392578
1473.302123	0.097017	0.352129	5418.901367
1473.303054	0.097079	0.352129	5509.281738
1473.303962	0.097145	0.352129	5597.489258
1473.304870	0.097017	0.352129	5685.580566
1473.305757	0.097072	0.352129	5771.683105
1473.306721	0.097152	0.352129	5865.337891
1473.307620	0.097090	0.352129	5952.621582
1474.300908	1.442677	0.364283	665.074097
1474.301822	1.916466	0.364283	2416.724121
1474.302755	1.876853	0.364283	4167.828125
1474.303663	0.968437	0.364283	5047.169434
1474.304614	0.100166	0.364283	5142.427246
1474.305508	0.096969	0.364283	5229.117676
1474.306398	0.096991	0.364283	5315.439453
1474.307326	0.097064	0.364283	5405.515137
1474.308234	0.096973	0.364283	5493.566406
1474.309151	0.097039	0.364283	5582.550781
1474.310042	0.097009	0.364283	5668.985840
1474.311003	0.097050	0.364283	5762.250488
1474.311906	0.096995	0.364283	5849.836426
1474.312794	0.097028	0.364283	5935.997070
1475.310797	1.406045	0.353660	620.065857
1475.311695	1.916686	0.353660	2341.249512
1475.312589	1.880017	0.353660	4021.984619
1475.313568	0.999375	0.353660	5000.373047
1475.314471	0.102037	0.353660	5092.512695
1475.315367	0.096987	0.353660	5179.413086
1475.316295	0.097163	0.353660	5269.580566
1475.317194	0.097079	0.353660	5356.854492
1475.318090	0.097024	0.353660	5443.788086
1475.318978	0.097115	0.353660	5530.026855
1475.319935	0.097137	0.353660	5622.987305
1475.320829	0.097126	0.353660	5709.818359
1475.321731	0.097053	0.353660	5797.360352
1475.322622	0.097119	0.353660	5883.893555
1476.314833	1.404104	0.366635	619.209839
1476.315730	1.915803	0.366635	2337.685303
1476.316704	1.877036	0.366635	4165.918457
1476.317627	0.953273	0.366635	5045.789062
1476.318528	0.100767	0.366635	5136.579590
1476.319465	0.097101	0.366635	5227.562988
1476.320364	0.097123	0.366635	5314.876465
1476.321259	0.097072	0.366635	5401.755371
1476.322147	0.096962	0.366635	5487.857422
1476.323077	0.097068	0.366635	5578.130371
1476.323986	0.097086	0.366635	5666.381836
1476.324887	0.097079	0.366635	5753.850098
1476.325778	0.097072	0.366635	5840.340820
1476.326729	0.097053	0.366635	5932.638672
1477.325390	1.396981	0.362216	613.274719
1477.326349	1.916876	0.362216	2451.559082
1477.327255	1.877010	0.362216	4152.130859
1477.328173	0.978468	0.362216	5050.364258
1477.329063	0.101924	0.362216	5141.076660
1477.330010	0.097115	0.362216	5233.044922
1477.330922	0.097020	0.362216	5321.527344
1477.331818	0.097064	0.362216	5408.497070
1477.332751	0.097170	0.362216	5499.157227
1477.333652	0.097152	0.362216	5586.691406
1477.334548	0.097017	0.362216	5673.618164
1477.335438	0.097053	0.362216	5759.995605
1477.336384	0.097156	0.362216	5851.904785
1477.337284	0.097097	0.362216	5939.291992
1478.330253	1.469850	0.370583	742.274231
1478.331169	1.916917	0.370583	2498.169922
1478.332091	1.874982	0.370583	4226.902832
1478.332992	0.930264	0.370583	5065.070312
1478.333948	0.099250	0.370583	5159.953613
1478.334843	0.096947	0.370583	5246.721191
1478.335731	0.097086	0.370583	5332.933594
1478.336654	0.097152	0.370583	5422.604980
1478.337576	0.097031	0.370583	5512.067871
1478.338477	0.096976	0.370583	5599.443359
1478.339371	0.097134	0.370583	5686.280762
1478.340304	0.097086	0.370583	5776.862305
1478.341211	0.097079	0.370583	5864.912598
1478.342128	0.097020	0.370583	5953.880371
1479.339091	1.408645	0.358977	628.255676
1479.340053	1.916968	0.358977	2472.378662
1479.340957	1.877062	0.358977	4169.242187
1479.341855	1.004850	0.358977	5071.597656
1479.342784	0.102469	0.358977	5166.791992
1479.343714	0.097042	0.358977	5257.041504
1479.344620	0.097013	0.358977	5344.935059
1479.345508	0.097072	0.358977	5431.134766
1479.346457	0.097090	0.358977	5523.272949
1479.347361	0.097020	0.358977	5610.979492
1479.348253	0.097075	0.358977	5697.570801
1479.349176	0.097061	0.358977	5787.157715
1479.350074	0.097035	0.358977	5874.294922
1479.350971	0.097020	0.358977	5961.322266
1480.345594	1.415665	0.371119	685.182007
1480.346517	1.917253	0.371119	2454.806885
1480.347430	1.876194	0.371119	4167.771973
1480.348332	0.970012	0.371119	5042.723145
1480.349274	0.100840	0.371119	5137.714355
1480.350181	0.096995	0.371119	5225.688477
1480.351073	0.097119	0.371119	5312.318848
1480.351963	0.097068	0.371119	5398.709473
1480.352900	0.097174	0.371119	5489.761719
1480.353811	0.097064	0.371119	5578.187012
1480.354708	0.097068	0.371119	5665.256836
1480.355631	0.097104	0.371119	5754.884277
1480.356540	0.097167	0.371119	5843.208984
1480.357445	0.096987	0.371119	5930.982422
1481.351629	1.397743	0.360790	616.404602
1481.352596	1.916927	0.360790	2470.073486
1481.353511	1.876315	0.360790	4186.901367
1481.354425	0.955371	0.360790	5060.110352
1481.355311	0.101378	0.360790	5149.931641
1481.356247	0.097126	0.360790	5240.841797
1481.357159	0.097086	0.360790	5329.384277
1481.358054	0.097057	0.360790	5416.250000
1481.358983	0.097101	0.360790	5506.456543
1481.359894	0.097057	0.360790	5594.875488
1481.360792	0.097050	0.360790	5682.025879
1481.361679	0.096976	0.360790	5768.043945
1481.362627	0.097148	0.360790	5860.140625
1481.363524	0.097141	0.360790	5947.276367
1482.361414	1.384904	0.369846	595.508545
1482.362368	1.916224	0.369846	2423.586426
1482.363299	1.876681	0.369846	4170.776367
1482.364217	0.961630	0.369846	5053.552246
1482.365106	0.101631	0.369846	5143.901855
1482.366057	0.097031	0.369846	5236.178711
1482.366962	0.097002	0.369846	5323.965332
1482.367855	0.097050	0.369846	5410.630371
1482.368797	0.097024	0.369846	5502.026855
1482.369700	0.097035	0.369846	5589.649414
1482.370600	0.097031	0.369846	5676.977539
1482.371485	0.097061	0.369846	5762.875977
1482.372443	0.097064	0.369846	5855.863281
1482.373358	0.097046	0.369846	5944.660156
1483.364564	1.404712	0.362329	627.906189
1483.365464	1.917202	0.362329	2353.387939
1483.366406	1.878680	0.362329	4123.104980
1483.367339	0.987012	0.362329	5043.986816
1483.368257	0.101019	0.362329	5136.722656
1483.369146	0.097024	0.362329	5222.977051
1483.370107	0.097119	0.362329	5316.308594
1483.371000	0.097024	0.362329	5402.951172
1483.371888	0.097086	0.362329	5489.163574
1483.372811	0.097104	0.362329	5578.791016
1483.373739	0.097017	0.362329	5668.822266
1483.374643	0.096984	0.362329	5756.495605
1483.375534	0.097072	0.362329	5842.986328
1483.376456	0.097075	0.362329	5932.489746
1484.376919	1.420342	0.371836	639.153809
1484.377820	1.916704	0.371836	2366.104248
1484.378761	1.878497	0.371836	4133.770508
1484.379689	0.981866	0.371836	5044.942383
1484.380589	0.101796	0.371836	5136.558594
1484.381480	0.097009	0.371836	5222.993652
1484.382423	0.097170	0.371836	5314.625488
1484.383329	0.097057	0.371836	5402.559082
1484.384214	0.097101	0.371836	5488.493164
1484.385122	0.097053	0.371836	5576.617676
1484.386042	0.097112	0.371836	5665.960449
1484.386958	0.096991	0.371836	5754.804199
1484.387853	0.097031	0.371836	5841.646973
1484.388782	0.097159	0.371836	5931.908203
1485.377230	1.403159	0.360987	618.793152
1485.378131	1.915847	0.360987	2344.971436
1485.379113	1.876190	0.360987	4187.390137
1485.380035	0.938276	0.360987	5052.480957
1485.380932	0.100616	0.360987	5142.733887
1485.381864	0.097028	0.360987	5233.163574
1485.382764	0.097123	0.360987	5320.574219
1485.383658	0.097035	0.360987	5407.323242
1485.384545	0.097090	0.360987	5493.441895
1485.385486	0.097108	0.360987	5584.820801
1485.386387	0.097068	0.360987	5672.278809
1485.387288	0.097046	0.360987	5759.717285
1485.388181	0.097002	0.360987	5846.339844
1485.389124	0.097159	0.360987	5937.960937
1486.390480	1.401515	0.371554	616.666565
1486.391376	1.915913	0.371554	2333.324707
1486.392337	1.877747	0.371554	4137.838867
1486.393259	0.983694	0.371554	5044.804687
1486.394159	0.101766	0.371554	5136.394531
1486.395080	0.097024	0.371554	5225.753418
1486.395991	0.097101	0.371554	5314.212402
1486.396889	0.097035	0.371554	5401.349609
1486.397773	0.097057	0.371554	5487.147949
1486.398699	0.097094	0.371554	5577.056641
1486.399609	0.097094	0.371554	5665.411621
1486.400515	0.096969	0.371554	5753.265625
1486.401439	0.097024	0.371554	5842.915527
1486.402332	0.097057	0.371554	5929.587402
1487.389409	1.437546	0.357503	655.521118
1487.390313	1.916689	0.357503	2388.208496
1487.391206	1.879395	0.357503	4066.507812
1487.392173	0.982430	0.357503	5016.518066
1487.393089	0.101609	0.357503	5109.591797
1487.393980	0.097009	0.357503	5196.026855
1487.394899	0.097068	0.357503	5285.232422
1487.395814	0.097028	0.357503	5374.012695
1487.396725	0.096903	0.357503	5462.291504
1487.397620	0.097061	0.357503	5549.160645
1487.398553	0.097174	0.357503	5639.824219
1487.399450	0.097079	0.357503	5726.903809
1487.400348	0.097061	0.357503	5814.063965
1487.401235	0.097046	0.357503	5900.143555
1488.402135	1.416251	0.381488	623.150513
1488.403054	1.916825	0.381488	2384.712646
1488.403963	1.879003	0.381488	4092.726074
1488.404909	0.998862	0.381488	5037.649902
1488.405820	0.101254	0.381488	5129.892090
1488.406719	0.096976	0.381488	5217.073730
1488.407612	0.097013	0.381488	5303.706055
1488.408555	0.097101	0.381488	5395.271973
1488.409452	0.097039	0.381488	5482.315430
1488.410346	0.097079	0.381488	5569.104004
1488.411235	0.097042	0.381488	5655.374512
1488.412189	0.097134	0.381488	5748.040039
1488.413100	0.096962	0.381488	5836.372070
1488.413998	0.097013	0.381488	5923.489746
1489.403351	1.400164	0.353801	620.272522
1489.404256	1.916920	0.353801	2355.085205
1489.405151	1.880186	0.353801	4037.851318
1489.406141	0.962710	0.353801	4990.934082
1489.407041	0.101107	0.353801	5081.930664
1489.407931	0.096962	0.353801	5168.226562
1489.408850	0.097086	0.353801	5257.448730
1489.409777	0.097017	0.353801	5347.383301
1489.410673	0.096995	0.353801	5434.290527
1489.411557	0.097086	0.353801	5520.114746
1489.412495	0.097068	0.353801	5611.164551
1489.413399	0.097024	0.353801	5698.874023
1489.414313	0.097079	0.353801	5787.604004
1489.415209	0.097094	0.353801	5874.599609
1490.412632	1.424890	0.398165	638.350769
1490.413539	1.916850	0.398165	2376.934082
1490.414435	1.879032	0.398165	4060.546631
1490.415408	0.970924	0.398165	5005.255859
1490.416316	0.101184	0.398165	5097.130859
1490.417214	0.096980	0.398165	5184.218750
1490.418148	0.097053	0.398165	5274.866699
1490.419049	0.097130	0.398165	5362.380859
1490.419944	0.097053	0.398165	5449.243652
1490.420828	0.097094	0.398165	5535.074219
1490.421765	0.097075	0.398165	5626.033691
1490.422666	0.097108	0.398165	5713.528320
1490.423569	0.097028	0.398165	5801.144043
1490.424471	0.097101	0.398165	5888.729004
1491.419221	1.411622	0.351944	628.171936
1491.420125	1.917092	0.351944	2361.223389
1491.421030	1.879405	0.351944	4062.085449
1491.421986	1.006216	0.351944	5024.027832
1491.422893	0.101990	0.351944	5116.532715
1491.423793	0.096954	0.351944	5203.791504
1491.424719	0.097072	0.351944	5293.679687
1491.425629	0.097028	0.351944	5381.974609
1491.426532	0.097017	0.351944	5469.580566
1491.427420	0.097017	0.351944	5555.731445
1491.428372	0.097123	0.351944	5648.192383
1491.429278	0.097061	0.351944	5736.129395
1491.430167	0.097075	0.351944	5822.429199
1491.431077	0.097094	0.351944	5910.784180
1492.422877	1.427325	0.411680	648.005798
1492.423783	1.916898	0.411680	2384.715576
1492.424679	1.880028	0.411680	4069.220703
1492.425651	0.975817	0.411680	5017.714355
1492.426554	0.101616	0.411680	5109.473633
1492.427474	0.096899	0.411680	5198.621094
1492.428362	0.097024	0.411680	5284.778320
1492.429315	0.096987	0.411680	5377.207031
1492.430219	0.097002	0.411680	5464.896973
1492.431111	0.096991	0.411680	5551.413086
1492.432037	0.097072	0.411680	5641.301270
1492.432947	0.097017	0.411680	5729.586426
1492.433869	0.096987	0.411680	5819.008789
1492.434755	0.097006	0.411680	5904.955566
1493.436611	1.389503	0.353334	603.044373
1493.437531	1.915005	0.353334	2364.848877
1493.438485	1.877139	0.353334	4155.639160
1493.439408	0.963995	0.353334	5045.406738
1493.440306	0.101155	0.353334	5136.243652
1493.441236	0.097042	0.353334	5226.493164
1493.442144	0.097112	0.353334	5314.670898
1493.443045	0.097130	0.353334	5402.185059
1493.443933	0.097072	0.353334	5488.384766
1493.444873	0.097137	0.353334	5579.693848
1493.445779	0.097009	0.353334	5667.584473
1493.446664	0.097068	0.353334	5753.489746
1493.447576	0.097042	0.353334	5841.992187
1493.448511	0.097181	0.353334	5932.856934
1494.433732	1.390411	0.403788	606.219360
1494.434678	1.916990	0.403788	2419.691650
1494.435601	1.877043	0.403788	4152.202637
1494.436517	0.981244	0.403788	5051.021973
1494.437422	0.102078	0.403788	5143.402344
1494.438369	0.097028	0.403788	5235.287598
1494.439275	0.097042	0.403788	5323.208008
1494.440170	0.097017	0.403788	5410.038086
1494.441109	0.097123	0.403788	5501.236328
1494.442019	0.097148	0.403788	5589.641602
1494.442910	0.097097	0.403788	5676.155273
1494.443797	0.097042	0.403788	5762.231934
1494.444732	0.097134	0.403788	5853.052246
1494.445642	0.097046	0.403788	5941.364258
1495.452120	1.422817	0.343090	635.999329
1495.453027	1.917125	0.343090	2374.832031
1495.453922	1.879028	0.343090	4056.562500
1495.454898	0.978585	0.343090	5011.661621
1495.455805	0.101367	0.343090	5103.601562
1495.456707	0.097002	0.343090	5191.097168
1495.457637	0.097148	0.343090	5281.445312
1495.458532	0.097126	0.343090	5368.373535
1495.459432	0.096962	0.343090	5455.639160
1495.460323	0.097035	0.343090	5542.097168
1495.461270	0.097050	0.343090	5634.002930
1495.462168	0.097024	0.343090	5721.130371
1495.463067	0.097031	0.343090	5808.361328
1495.463967	0.097108	0.343090	5895.758789
1496.445674	1.433298	0.392739	662.183838
1496.446579	1.917063	0.392739	2397.125732
1496.447474	1.878589	0.392739	4078.462646
1496.448444	0.968730	0.392739	5018.131348
1496.449337	0.101422	0.392739	5108.701172
1496.450229	0.096984	0.392739	5195.210449
1496.451158	0.097079	0.392739	5285.396484
1496.452071	0.097068	0.392739	5374.019531
1496.452977	0.097079	0.392739	5461.973145
1496.453865	0.097046	0.392739	5548.149902
1496.454807	0.097108	0.392739	5639.625977
1496.455713	0.097101	0.392739	5727.599121
1496.456613	0.097112	0.392739	5815.000000
1496.457497	0.097024	0.392739	5900.769043
1497.466570	1.395923	0.336741	607.226379
1497.467513	1.916265	0.336741	2414.263916
1497.468438	1.877102	0.336741	4150.583008
1497.469357	0.980024	0.336741	5051.225586
1497.470244	0.102034	0.336741	5141.729492
1497.471196	0.096991	0.336741	5234.064941
1497.472101	0.097017	0.336741	5321.864746
1497.472990	0.097039	0.336741	5408.131836
1497.473921	0.097075	0.336741	5498.508789
1497.474821	0.097104	0.336741	5585.902832
1497.475719	0.096991	0.336741	5673.000488
1497.476616	0.096987	0.336741	5759.998047
1497.477537	0.097101	0.336741	5849.427734
1497.478441	0.097097	0.336741	5937.203613
1498.459716	1.388976	0.380460	601.426575
1498.460677	1.915334	0.380460	2442.062988
1498.461603	1.876285	0.380460	4179.502930
1498.462519	0.954170	0.380460	5053.522461
1498.463409	0.101389	0.380460	5143.758789
1498.464355	0.097097	0.380460	5235.612793
1498.465255	0.097035	0.380460	5322.944336
1498.466146	0.096943	0.380460	5409.320801
1498.467059	0.096998	0.380460	5497.880371
1498.467979	0.097083	0.380460	5587.196289
1498.468880	0.097020	0.380460	5674.611328
1498.469777	0.096984	0.380460	5761.605469
1498.470702	0.097090	0.380460	5851.413574
1498.471603	0.097104	0.380460	5938.904785
1499.477236	1.439791	0.350695	688.220276
1499.478154	1.917338	0.350695	2448.336426
1499.479061	1.877223	0.350695	4150.977539
1499.479961	1.009449	0.350695	5059.481934
1499.480916	0.100232	0.350695	5155.203613
1499.481823	0.097115	0.350695	5243.287109
1499.482718	0.097042	0.350695	5330.140137
1499.483631	0.097061	0.350695	5418.756348
1499.484549	0.097068	0.350695	5507.864746
1499.485459	0.097020	0.350695	5596.153320
1499.486350	0.097083	0.350695	5682.653809
1499.487279	0.097123	0.350695	5772.880859
1499.488188	0.097064	0.350695	5861.112305
1499.489089	0.097086	0.350695	5948.586914
1500.474593	1.420133	0.384787	640.479980
1500.475501	1.916825	0.384787	2380.957031
1500.476392	1.880087	0.384787	4056.114258
1500.477323	1.054647	0.384787	5037.990723
1500.478258	0.101763	0.384787	5133.138672
1500.479164	0.097050	0.384787	5221.065430
1500.480057	0.097119	0.384787	5307.792969
1500.480990	0.097163	0.384787	5398.446289
1500.481895	0.097079	0.384787	5486.302734
1500.482791	0.097123	0.384787	5573.324707
1500.483681	0.097218	0.384787	5659.848633
1500.484618	0.097163	0.384787	5750.890625
1500.485514	0.097104	0.384787	5837.896484
1500.486403	0.097229	0.384787	5924.333008
1501.486536	1.405159	0.366845	616.864624
1501.487516	1.917334	0.366845	2495.852051
1501.488432	1.875513	0.366845	4213.821289
1501.489345	0.927089	0.366845	5060.252930
1501.490278	0.100763	0.366845	5154.264648
1501.491182	0.097104	0.366845	5242.046875
1501.492078	0.097196	0.366845	5329.134766
1501.492966	0.097170	0.366845	5415.421875
1501.493913	0.097207	0.366845	5507.477051
1501.494813	0.097163	0.366845	5594.923828
1501.495711	0.097083	0.366845	5682.104004
1501.496599	0.097156	0.366845	5768.378418
1501.497548	0.097207	0.366845	5860.627930
1501.498462	0.097119	0.366845	5949.395020
1502.490961	1.409279	0.387756	622.901123
1502.491882	1.916620	0.387756	2388.107910
1502.492789	1.879058	0.387756	4092.413086
1502.493740	0.983745	0.387756	5027.954590
1502.494646	0.101495	0.387756	5119.909180
1502.495553	0.097053	0.387756	5207.936523
1502.496441	0.097156	0.387756	5294.210937
1502.497381	0.097200	0.387756	5385.578613
1502.498286	0.097130	0.387756	5473.481445
1502.499180	0.097057	0.387756	5560.250488
1502.500102	0.097141	0.387756	5649.814453
1502.501005	0.097152	0.387756	5737.542969
1502.501902	0.097075	0.387756	5824.619629
1502.502793	0.097112	0.387756	5911.146484
1503.497294	1.418708	0.383651	631.325256
1503.498267	1.916785	0.383651	2496.356689
1503.499161	1.876465	0.383651	4173.916016
1503.500064	0.988308	0.383651	5066.358398
1503.501002	0.102045	0.383651	5162.076172
1503.501904	0.096973	0.383651	5249.545410
1503.502815	0.097068	0.383651	5337.974121
1503.503708	0.097050	0.383651	5424.639160
1503.504650	0.097126	0.383651	5516.132324
1503.505557	0.097050	0.383651	5604.156250
1503.506482	0.097042	0.383651	5693.920410
1503.507375	0.097086	0.383651	5780.618164
1503.508303	0.097039	0.383651	5870.669922
1503.509207	0.097053	0.383651	5958.406250
1504.506573	1.403694	0.389750	621.836365
1504.507546	1.916979	0.389750	2487.056885
1504.508451	1.876282	0.389750	4185.091797
1504.509356	0.971246	0.389750	5064.069824
1504.510286	0.101843	0.389750	5158.784180
1504.511207	0.097126	0.389750	5248.237793
1504.512113	0.097178	0.389750	5336.280762
1504.513001	0.097123	0.389750	5422.525879
1504.513960	0.097211	0.389750	5515.750977
1504.514872	0.097130	0.389750	5604.333496
1504.515768	0.097119	0.389750	5691.352051
1504.516653	0.097123	0.389750	5777.305664
1504.517585	0.097181	0.389750	5867.878906
1504.518478	0.097079	0.389750	5954.570312
1505.509577	1.419082	0.378708	621.557922
1505.510562	1.917048	0.378708	2509.850586
1505.511480	1.874810	0.378708	4230.925781
1505.512387	0.919618	0.378708	5065.019531
1505.513327	0.100400	0.378708	5159.395996
1505.514231	0.097159	0.378708	5247.228027
1505.515130	0.097181	0.378708	5334.594238
1505.516019	0.097156	0.378708	5420.965820
1505.516962	0.097233	0.378708	5512.656250
1505.517869	0.097214	0.378708	5600.829590
1505.518757	0.097181	0.378708	5687.126465
1505.519665	0.097123	0.378708	5775.313965
1505.520596	0.097255	0.378708	5865.857910
1505.521504	0.097200	0.378708	5954.115234
1506.522453	1.405221	0.381153	619.702393
1506.523394	1.917272	0.381153	2423.854980
1506.524309	1.877494	0.381153	4141.761719
1506.525217	1.008296	0.381153	5057.294434
1506.526101	0.103004	0.381153	5148.350098
1506.527038	0.097167	0.381153	5239.395508
1506.527950	0.097134	0.381153	5327.981445
1506.528844	0.097152	0.381153	5414.835449
1506.529768	0.097192	0.381153	5504.641113
1506.530679	0.097170	0.381153	5593.163574
1506.531581	0.097126	0.381153	5680.771484
1506.532470	0.097229	0.381153	5767.208008
1506.533431	0.097236	0.381153	5860.652344
1506.534332	0.097192	0.381153	5948.222656
1507.522254	1.399039	0.369483	612.779175
1507.523194	1.916528	0.369483	2414.315918
1507.524117	1.877402	0.369483	4147.158203
1507.525027	1.001631	0.369483	5058.642090
1507.525915	0.102605	0.369483	5149.755371
1507.526867	0.097126	0.369483	5242.219727
1507.527779	0.097086	0.369483	5330.762207
1507.528675	0.097115	0.369483	5417.777832
1507.529609	0.097167	0.369483	5508.531738
1507.530512	0.097189	0.369483	5596.292969
1507.531411	0.097108	0.369483	5683.593262
1507.532295	0.097097	0.369483	5769.427246
1507.533239	0.097196	0.369483	5861.180176
1507.534143	0.097130	0.369483	5948.985840
1508.537081	1.419027	0.377661	682.552002
1508.538005	1.916708	0.377661	2453.589844
1508.538923	1.876088	0.377661	4175.838379
1508.539825	0.996790	0.377661	5074.942383
1508.540778	0.100540	0.377661	5170.756348
1508.541678	0.097090	0.377661	5258.137207
1508.542591	0.097192	0.377661	5346.874023
1508.543491	0.097192	0.377661	5434.347168
1508.544442	0.097185	0.377661	5526.770020
1508.545340	0.097203	0.377661	5614.058594
1508.546228	0.097196	0.377661	5700.368652
1508.547163	0.097214	0.377661	5791.264160
1508.548076	0.097225	0.377661	5880.030762
1508.548991	0.097112	0.377661	5968.888184
1509.536725	1.407371	0.359771	613.613586
1509.537648	1.916814	0.359771	2382.832764
1509.538551	1.879669	0.359771	4080.173828
1509.539515	0.981427	0.359771	5026.269531
1509.540419	0.101360	0.359771	5117.898926
1509.541315	0.097057	0.359771	5204.861816
1509.542203	0.097181	0.359771	5291.158691
1509.543153	0.097313	0.359771	5383.606445
1509.544053	0.097152	0.359771	5471.043457
1509.544952	0.097152	0.359771	5558.383301
1509.545838	0.097130	0.359771	5644.440430
1509.546763	0.097200	0.359771	5734.350098
1509.547674	0.097148	0.359771	5822.852539
1509.548574	0.097181	0.359771	5910.315918
1510.550992	1.406814	0.379606	624.625427
1510.551891	1.916807	0.379606	2347.834717
1510.552832	1.878798	0.379606	4115.783203
1510.553756	1.010164	0.379606	5049.174316
1510.554656	0.102283	0.379606	5141.228516
1510.555542	0.097013	0.379606	5227.182129
1510.556471	0.097218	0.379606	5317.497559
1510.557384	0.097163	0.379606	5406.207520
1510.558278	0.097207	0.379606	5493.110840
1510.559198	0.097137	0.379606	5582.477539
1510.560119	0.097222	0.379606	5672.018555
1510.561027	0.097203	0.379606	5760.279297
1510.561925	0.097218	0.379606	5847.581055
1510.562854	0.097284	0.379606	5937.958008
1511.551050	1.392111	0.356967	608.352356
1511.551945	1.916232	0.356967	2323.379639
1511.552899	1.878505	0.356967	4115.472656
1511.553821	1.006359	0.356967	5043.335449
1511.554725	0.102312	0.356967	5135.825684
1511.555611	0.097035	0.356967	5221.798828
1511.556564	0.097207	0.356967	5314.437012
1511.557476	0.097141	0.356967	5403.029785
1511.558365	0.097148	0.356967	5489.394531
1511.559292	0.097178	0.356967	5579.478516
1511.560198	0.097159	0.356967	5667.504883
1511.561105	0.097137	0.356967	5755.608398
1511.562025	0.097123	0.356967	5844.961426
1511.562923	0.097170	0.356967	5932.220703
1512.564678	1.392667	0.382612	609.988220
1512.565570	1.915430	0.382612	2318.551514
1512.566547	1.876937	0.382612	4152.319336
1512.567483	0.943495	0.382612	5035.430664
1512.568382	0.100876	0.382612	5126.118652
1512.569332	0.097255	0.382612	5218.510742
1512.570237	0.097185	0.382612	5306.463379
1512.571139	0.097123	0.382612	5394.068359
1512.572029	0.097090	0.382612	5480.478516
1512.572978	0.097200	0.382612	5572.721191
1512.573888	0.097196	0.382612	5661.169434
1512.574777	0.097203	0.382612	5747.583008
1512.575711	0.097185	0.382612	5838.354004
1512.576616	0.097291	0.382612	5926.402832
1513.565382	1.397633	0.361161	606.572693
1513.566353	1.917400	0.361161	2468.367920
1513.567270	1.876406	0.361161	4189.032227
1513.568174	0.975575	0.361161	5070.952148
1513.569119	0.101920	0.361161	5167.266602
1513.570022	0.097156	0.361161	5254.998047
1513.570920	0.097112	0.361161	5342.204590
1513.571808	0.097181	0.361161	5428.501465
1513.572745	0.097251	0.361161	5519.625488
1513.573649	0.097203	0.361161	5607.497559
1513.574558	0.097148	0.361161	5695.805664
1513.575446	0.097141	0.361161	5782.066895
1513.576394	0.097247	0.361161	5874.257324
1513.577301	0.097104	0.361161	5962.331055
1514.578249	1.387727	0.388026	602.273499
1514.579185	1.916733	0.388026	2396.335937
1514.580108	1.877677	0.388026	4129.431641
1514.581019	1.009336	0.388026	5048.936523
1514.581907	0.102810	0.388026	5140.231934
1514.582873	0.097101	0.388026	5234.031250
1514.583781	0.097134	0.388026	5322.228516
1514.584679	0.097148	0.388026	5409.467773
1514.585600	0.097185	0.388026	5498.975098
1514.586501	0.097203	0.388026	5586.555176
1514.587397	0.097152	0.388026	5673.603516
1514.588281	0.097233	0.388026	5759.557129
1514.589218	0.097240	0.388026	5850.670898
1514.590120	0.097200	0.388026	5938.345215
1515.578690	1.387068	0.364956	599.213257
1515.579638	1.915580	0.364956	2415.183105
1515.580568	1.877201	0.364956	4160.979980
1515.581478	0.982764	0.364956	5055.294922
1515.582368	0.102026	0.364956	5146.098633
1515.583309	0.097185	0.364956	5237.549805
1515.584220	0.097145	0.364956	5326.048828
1515.585131	0.097079	0.364956	5414.487793
1515.586028	0.097174	0.364956	5501.652832
1515.586985	0.097134	0.364956	5594.609863
1515.587886	0.097192	0.364956	5682.180176
1515.588775	0.097185	0.364956	5768.577637
1515.589700	0.097225	0.364956	5858.511230
1515.590620	0.097145	0.364956	5947.884277
1516.591996	1.423685	0.390076	696.182129
1516.592912	1.917147	0.390076	2452.289062
1516.593831	1.876249	0.390076	4176.561523
1516.594732	0.972524	0.390076	5052.806152
1516.595681	0.100763	0.390076	5148.430176
1516.596575	0.097192	0.390076	5235.320312
1516.597475	0.097181	0.390076	5322.783691
1516.598362	0.097225	0.390076	5409.022461
1516.599308	0.097203	0.390076	5500.977051
1516.600217	0.097126	0.390076	5589.265137
1516.601119	0.097178	0.390076	5676.919434
1516.602044	0.097178	0.390076	5766.808594
1516.602941	0.097225	0.390076	5854.019531
1516.603832	0.097181	0.390076	5940.608398
1517.592664	1.420785	0.364867	635.090820
1517.593583	1.916514	0.364867	2396.366943
1517.594494	1.878376	0.364867	4107.567871
1517.595450	0.963907	0.364867	5029.063477
1517.596354	0.101191	0.364867	5120.540527
1517.597261	0.097090	0.364867	5208.601074
1517.598148	0.097145	0.364867	5294.768555
1517.599098	0.097240	0.364867	5387.146484
1517.600004	0.097277	0.364867	5475.279297
1517.600895	0.097141	0.364867	5561.832031
1517.601810	0.097141	0.364867	5650.716309
1517.602730	0.097266	0.364867	5740.200684
1517.603643	0.097137	0.364867	5828.887207
1517.604537	0.097170	0.364867	5915.757324
1518.606557	1.420898	0.392010	643.666992
1518.607457	1.916726	0.392010	2368.720459
1518.608389	1.878505	0.392010	4119.486816
1518.609292	1.038732	0.392010	5057.461426
1518.610254	0.101067	0.392010	5154.687988
1518.611148	0.097094	0.392010	5241.489746
1518.612066	0.097167	0.392010	5330.688965
1518.612961	0.097126	0.392010	5417.617187
1518.613913	0.097064	0.392010	5510.022461
1518.614836	0.097170	0.392010	5599.710937
1518.615723	0.097126	0.392010	5685.862305
1518.616695	0.097152	0.392010	5780.293945
1518.617600	0.097170	0.392010	5868.233398
1518.618486	0.097222	0.392010	5954.371582
1519.605981	1.416592	0.369515	628.966797
1519.606880	1.916975	0.369515	2352.327393
1519.607778	1.880786	0.369515	4041.273437
1519.608708	1.080439	0.369515	5046.082031
1519.609623	0.103466	0.369515	5140.752930
1519.610520	0.097108	0.369515	5227.858887
1519.611410	0.097196	0.369515	5314.363281
1519.612346	0.097196	0.369515	5405.338867
1519.613256	0.097134	0.369515	5493.730469
1519.614159	0.097174	0.369515	5581.478516
1519.615050	0.097148	0.369515	5668.037598
1519.615987	0.097251	0.369515	5759.161621
1519.616894	0.097141	0.369515	5847.268555
1519.617784	0.097137	0.369515	5933.720703
1520.620619	1.390928	0.395442	605.053528
1520.621551	1.915547	0.395442	2390.343018
1520.622482	1.877966	0.395442	4138.729492
1520.623405	0.987349	0.395442	5050.052246
1520.624304	0.101730	0.395442	5141.507324
1520.625233	0.097163	0.395442	5231.771973
1520.626136	0.097196	0.395442	5319.540039
1520.627037	0.097236	0.395442	5407.149902
1520.627923	0.097148	0.395442	5493.223633
1520.628868	0.097207	0.395442	5585.084473
1520.629773	0.097123	0.395442	5672.980469
1520.630665	0.097229	0.395442	5759.708984
1520.631598	0.097181	0.395442	5850.379395
1520.632510	0.097236	0.395442	5939.059082
1521.619414	1.422250	0.376633	640.012329
1521.620322	1.917096	0.376633	2380.735352
1521.621216	1.879439	0.376633	4060.953369
1521.622174	1.005081	0.376633	5023.820312
1521.623077	0.102579	0.376633	5116.449219
1521.623968	0.097108	0.376633	5202.972656
1521.624896	0.097273	0.376633	5293.242187
1521.625801	0.097295	0.376633	5381.293945
1521.626702	0.097200	0.376633	5468.871094
1521.627593	0.097181	0.376633	5555.459961
1521.628532	0.097196	0.376633	5646.727051
1521.629436	0.097284	0.376633	5734.671875
1521.630339	0.097214	0.376633	5822.456543
1521.631228	0.097148	0.376633	5908.821289
1522.634442	1.398757	0.393843	616.851929
1522.635334	1.915583	0.393843	2325.552246
1522.636319	1.876838	0.393843	4174.238281
1522.637223	0.976154	0.393843	5056.681152
1522.638114	0.101825	0.393843	5147.407227
1522.639053	0.097141	0.393843	5238.622559
1522.639950	0.097134	0.393843	5325.751465
1522.640864	0.097137	0.393843	5414.535156
1522.641758	0.097163	0.393843	5501.398926
1522.642709	0.097156	0.393843	5593.793945
1522.643613	0.097123	0.393843	5681.592773
1522.644532	0.097167	0.393843	5770.889160
1522.645423	0.097222	0.393843	5857.513672
1522.646376	0.097024	0.393843	5949.977539
1523.632607	1.414138	0.374998	626.463196
1523.633523	1.916671	0.374998	2382.134033
1523.634427	1.879296	0.374998	4081.017334
1523.635387	0.970441	0.374998	5012.640625
1523.636304	0.101016	0.374998	5105.271973
1523.637201	0.097035	0.374998	5192.312500
1523.638143	0.097225	0.374998	5283.898926
1523.639048	0.097167	0.374998	5371.834961
1523.639952	0.097178	0.374998	5459.683594
1523.640839	0.097170	0.374998	5545.873535
1523.641792	0.097214	0.374998	5638.519043
1523.642691	0.097152	0.374998	5725.858887
1523.643588	0.097134	0.374998	5812.987793
1523.644491	0.097072	0.374998	5900.643555
1524.647117	1.397168	0.388888	609.165283
1524.648082	1.916067	0.388888	2458.169922
1524.648993	1.876783	0.388888	4167.919434
1524.649900	0.985712	0.388888	5061.959961
1524.650783	0.102374	0.388888	5152.356445
1524.651720	0.097185	0.388888	5243.418945
1524.652624	0.097240	0.388888	5331.323730
1524.653518	0.097222	0.388888	5418.239746
1524.654420	0.097167	0.388888	5505.884277
1524.655352	0.097203	0.388888	5596.478027
1524.656258	0.097072	0.388888	5684.424805
1524.657150	0.097083	0.388888	5771.022461
1524.658087	0.097196	0.388888	5862.095215
1524.658998	0.097240	0.388888	5950.680664
1525.646665	1.397732	0.375256	610.808838
1525.647560	1.915243	0.375256	2324.951172
1525.648532	1.877055	0.375256	4149.448242
1525.649455	0.973092	0.375256	5047.612305
1525.650352	0.101810	0.375256	5138.936035
1525.651294	0.097112	0.375256	5230.415527
1525.652192	0.097137	0.375256	5317.645020
1525.653090	0.097126	0.375256	5404.864746
1525.653975	0.097112	0.375256	5490.808594
1525.654916	0.097174	0.375256	5582.249512
1525.655820	0.097156	0.375256	5670.078125
1525.656719	0.097141	0.375256	5757.408203
1525.657626	0.097185	0.375256	5845.555176
1525.658565	0.097137	0.375256	5936.767090
1526.658776	1.426981	0.384976	644.995483
1526.659682	1.916920	0.384976	2381.725098
1526.660578	1.879647	0.384976	4065.889160
1526.661539	0.992985	0.384976	5020.147461
1526.662446	0.102213	0.384976	5112.854980
1526.663339	0.097115	0.384976	5199.579102
1526.664252	0.097222	0.384976	5288.342285
1526.665166	0.097203	0.384976	5377.186035
1526.666072	0.097119	0.384976	5465.175781
1526.666975	0.097072	0.384976	5552.831543
1526.667890	0.097170	0.384976	5641.742676
1526.668778	0.097141	0.384976	5728.003906
1526.669733	0.097222	0.384976	5820.850586
1526.670654	0.097225	0.384976	5910.395020
1527.661799	1.431771	0.371453	648.592346
1527.662727	1.916726	0.371453	2427.314209
1527.663627	1.878468	0.371453	4117.935547
1527.664531	1.020333	0.371453	5040.316895
1527.665473	0.101199	0.371453	5135.645996
1527.666376	0.097024	0.371453	5223.258789
1527.667268	0.097112	0.371453	5309.882324
1527.668204	0.097185	0.371453	5400.847656
1527.669117	0.097126	0.371453	5489.523926
1527.670018	0.097174	0.371453	5577.077637
1527.670906	0.097130	0.371453	5663.329102
1527.671850	0.097214	0.371453	5755.099609
1527.672743	0.097141	0.371453	5841.846680
1527.673635	0.097141	0.371453	5928.496582
1528.669774	1.402006	0.389979	614.078430
1528.670704	1.915184	0.389979	2395.199951
1528.671646	1.877069	0.389979	4163.398926
1528.672573	0.950530	0.389979	5044.540039
1528.673464	0.101294	0.389979	5134.792969
1528.674404	0.097141	0.389979	5226.105469
1528.675312	0.097185	0.389979	5314.349609
1528.676218	0.097163	0.389979	5402.379395
1528.677110	0.097203	0.389979	5489.084961
1528.678057	0.097218	0.389979	5581.150391
1528.678960	0.097148	0.389979	5668.875488
1528.679849	0.097148	0.389979	5755.240234
1528.680774	0.097196	0.389979	5845.146484
1528.681685	0.097262	0.389979	5933.751953
1529.678308	1.433961	0.375469	653.886292
1529.679207	1.916829	0.375469	2377.115234
1529.680101	1.880208	0.375469	4058.020752
1529.681055	1.012075	0.375469	5023.540527
1529.681969	0.102008	0.375469	5116.775879
1529.682872	0.097101	0.375469	5204.458008
1529.683759	0.097126	0.375469	5290.609375
1529.684717	0.097211	0.375469	5383.737305
1529.685626	0.097163	0.375469	5472.058594
1529.686526	0.097061	0.375469	5559.413086
1529.687457	0.097236	0.375469	5649.939941
1529.688363	0.097251	0.375469	5738.049316
1529.689257	0.097163	0.375469	5824.913086
1529.690139	0.097119	0.375469	5910.572266
1530.680391	1.409616	0.393939	617.411621
1530.681367	1.916924	0.393939	2488.329102
1530.682275	1.875864	0.393939	4191.613770
1530.683180	0.966226	0.393939	5066.047852
1530.684114	0.101407	0.393939	5160.762207
1530.685019	0.097134	0.393939	5248.668457
1530.685924	0.097145	0.393939	5336.584473
1530.686847	0.097079	0.393939	5426.188477
1530.687739	0.097170	0.393939	5512.864258
1530.688673	0.097156	0.393939	5603.607910
1530.689584	0.097101	0.393939	5692.066895
1530.690505	0.097097	0.393939	5781.493164
1530.691389	0.097126	0.393939	5867.353027
1530.692336	0.097101	0.393939	5959.307617
1531.694596	1.490914	0.379908	742.475281
1531.695525	1.917019	0.379908	2523.385986
1531.696429	1.875670	0.379908	4218.991699
1531.697386	0.860164	0.379908	5042.167969
1531.698291	0.099401	0.379908	5132.125488
1531.699190	0.097112	0.379908	5219.429199
1531.700077	0.097134	0.379908	5305.586914
1531.701026	0.097262	0.379908	5397.888672
1531.701930	0.097185	0.379908	5485.744141
1531.702819	0.097061	0.379908	5572.030762
1531.703736	0.097236	0.379908	5661.196289
1531.704645	0.097211	0.379908	5749.561035
1531.705556	0.097101	0.379908	5838.020020
1531.706453	0.097211	0.379908	5925.217773
1532.691541	1.408641	0.404002	618.393555
1532.692445	1.916697	0.404002	2351.087402
1532.693337	1.880277	0.404002	4028.294434
1532.694328	0.972627	0.404002	4992.167969
1532.695227	0.101682	0.404002	5083.580078
1532.696118	0.097072	0.404002	5170.070801
1532.697049	0.097236	0.404002	5260.597656
1532.697953	0.097207	0.404002	5348.472656
1532.698850	0.097222	0.404002	5435.680664
1532.699745	0.097163	0.404002	5522.641602
1532.700683	0.097178	0.404002	5613.794434
1532.701583	0.097236	0.404002	5701.307129
1532.702486	0.097134	0.404002	5789.019043
1532.703376	0.097192	0.404002	5875.520508
1533.710927	1.402679	0.380170	614.373596
1533.711849	1.916803	0.380170	2381.666016
1533.712754	1.879545	0.380170	4082.654053
1533.713701	1.010317	0.380170	5039.424805
1533.714601	0.102264	0.380170	5131.462891
1533.715502	0.097097	0.380170	5218.947266
1533.716390	0.097167	0.380170	5305.231445
1533.717341	0.097222	0.380170	5397.689453
1533.718235	0.097211	0.380170	5484.595703
1533.719131	0.097145	0.380170	5571.637207
1533.720021	0.097097	0.380170	5658.053711
1533.720975	0.097244	0.380170	5750.824219
1533.721880	0.097119	0.380170	5838.716797
1533.722780	0.097119	0.380170	5926.124023
1534.703743	1.459658	0.414024	716.692139
1534.704657	1.917151	0.414024	2468.968018
1534.705562	1.876985	0.414024	4167.639648
1534.706462	0.993124	0.414024	5061.451172
1534.707410	0.100668	0.414024	5156.884277
1534.708310	0.097181	0.414024	5244.347656
1534.709209	0.097156	0.414024	5331.690918
1534.710127	0.097196	0.414024	5420.916992
1534.711045	0.097332	0.414024	5510.267578
1534.711953	0.097134	0.414024	5598.464844
1534.712850	0.097185	0.414024	5685.639648
1534.713786	0.097255	0.414024	5776.669922
1534.714688	0.097159	0.414024	5864.307617
1534.715591	0.097137	0.414024	5952.022949
1535.725646	1.403778	0.370889	617.662354
1535.726545	1.916748	0.370889	2340.818848
1535.727486	1.878959	0.370889	4108.918945
1535.728417	1.007739	0.370889	5047.124023
1535.729315	0.102246	0.370889	5138.940918
1535.730247	0.097185	0.370889	5229.517578
1535.731161	0.097258	0.370889	5318.411621
1535.732068	0.097156	0.370889	5406.531738
1535.732953	0.097123	0.370889	5492.485352
1535.733897	0.097192	0.370889	5584.234863
1535.734790	0.097178	0.370889	5671.014648
1535.735691	0.097170	0.370889	5758.565430
1535.736582	0.097178	0.370889	5845.150879
1535.737533	0.097203	0.370889	5937.591309
1536.716950	1.474211	0.413368	756.270447
1536.717858	1.916821	0.413368	2496.744141
1536.718762	1.875776	0.413368	4192.446289
1536.719665	0.958956	0.413368	5058.383789
1536.720624	0.099518	0.413368	5153.821289
1536.721535	0.097090	0.413368	5242.270020
1536.722432	0.097145	0.413368	5329.408691
1536.723364	0.097174	0.413368	5419.975098
1536.724276	0.097211	0.413368	5508.631348
1536.725175	0.097163	0.413368	5595.980957
1536.726062	0.097086	0.413368	5682.096191
1536.727002	0.097203	0.413368	5773.467285
1536.727896	0.097218	0.413368	5860.380371
1536.728798	0.097181	0.413368	5948.038086
1537.737804	1.396483	0.369902	607.470215
1537.738711	1.916535	0.369902	2345.768066
1537.739604	1.880457	0.369902	4025.015625
1537.740565	1.031777	0.369902	5016.553711
1537.741472	0.103129	0.369902	5110.091309
1537.742361	0.097090	0.369902	5196.404297
1537.743302	0.097211	0.369902	5287.879395
1537.744193	0.097181	0.369902	5374.467773
1537.745092	0.097028	0.369902	5461.695801
1537.745980	0.097163	0.369902	5547.976562
1537.746919	0.097156	0.369902	5639.206055
1537.747830	0.097075	0.369902	5727.641602
1537.748732	0.097123	0.369902	5815.246582
1537.749618	0.097090	0.369902	5901.268066
1538.731734	1.408286	0.414008	623.870728
1538.732628	1.916279	0.414008	2337.024414
1538.733597	1.877270	0.414008	4156.099609
1538.734521	0.960102	0.414008	5043.234375
1538.735421	0.101415	0.414008	5134.507812
1538.736335	0.097123	0.414008	5223.277832
1538.737231	0.097174	0.414008	5310.345703
1538.738171	0.097094	0.414008	5401.613770
1538.739078	0.097181	0.414008	5489.757324
1538.739999	0.097152	0.414008	5579.234375
1538.740887	0.097134	0.414008	5665.489258
1538.741838	0.097200	0.414008	5757.926270
1538.742759	0.097222	0.414008	5847.467285
1538.743645	0.097203	0.414008	5933.589355
1539.749077	1.409128	0.367803	620.016479
1539.749970	1.915708	0.367803	2330.743652
1539.750932	1.877798	0.367803	4137.185059
1539.751840	1.015627	0.367803	5059.374512
1539.752731	0.103110	0.367803	5151.245605
1539.753685	0.097068	0.367803	5243.848145
1539.754588	0.097174	0.367803	5331.596191
1539.755494	0.097240	0.367803	5419.695801
1539.756386	0.097141	0.367803	5506.345703
1539.757337	0.097269	0.367803	5598.848633
1539.758240	0.097115	0.367803	5686.543945
1539.759134	0.097167	0.367803	5773.411133
1539.760054	0.097181	0.367803	5862.817871
1539.760975	0.097229	0.367803	5952.365723
1540.748749	1.400991	0.414645	615.035156
1540.749694	1.915562	0.414645	2425.240723
1540.750610	1.877567	0.414645	4145.092285
1540.751521	1.002902	0.414645	5058.735352
1540.752407	0.102722	0.414645	5149.747070
1540.753366	0.097119	0.414645	5242.884277
1540.754263	0.097181	0.414645	5330.056152
1540.755166	0.097207	0.414645	5417.833984
1540.756050	0.097214	0.414645	5503.771484
1540.756990	0.097229	0.414645	5595.166992
1540.757892	0.097181	0.414645	5682.824707
1540.758787	0.097185	0.414645	5769.805176
1540.759709	0.097280	0.414645	5859.497559
1540.760620	0.097240	0.414645	5948.083008
1541.759617	1.437070	0.375989	704.164429
1541.760534	1.916964	0.375989	2462.020508
1541.761442	1.876542	0.375989	4165.920410
1541.762340	0.991011	0.375989	5055.848145
1541.763294	0.100291	0.375989	5151.525391
1541.764186	0.097042	0.375989	5238.086914
1541.765092	0.097174	0.375989	5326.126465
1541.765979	0.097152	0.375989	5412.300293
1541.766926	0.097200	0.375989	5504.348633
1541.767833	0.097137	0.375989	5592.452148
1541.768728	0.097115	0.375989	5679.370605
1541.769657	0.097181	0.375989	5769.652344
1541.770564	0.097222	0.375989	5857.832520
1541.771464	0.097181	0.375989	5945.295898
1542.765272	1.420177	0.416530	641.919983
1542.766201	1.917118	0.416530	2422.922607
1542.767101	1.877626	0.416530	4112.785645
1542.768063	0.938082	0.416530	5015.220703
1542.768988	0.099990	0.416530	5107.711914
1542.769873	0.097083	0.416530	5193.629883
1542.770831	0.097119	0.416530	5286.669922
1542.771728	0.097079	0.416530	5373.749512
1542.772622	0.097167	0.416530	5460.616699
1542.773548	0.097203	0.416530	5550.626953
1542.774470	0.097094	0.416530	5640.146973
1542.775374	0.097053	0.416530	5727.883301
1542.776266	0.097112	0.416530	5814.506836
1542.777198	0.097152	0.416530	5905.052734
1543.771480	1.421162	0.388243	646.628784
1543.772381	1.917059	0.388243	2373.899414
1543.773330	1.877831	0.388243	4155.960937
1543.774266	0.950314	0.388243	5045.454590
1543.775168	0.101056	0.388243	5136.606934
1543.776055	0.097053	0.388243	5222.693359
1543.776998	0.097229	0.388243	5314.380371
1543.777902	0.097075	0.388243	5402.136230
1543.778795	0.097200	0.388243	5488.935547
1543.779721	0.097192	0.388243	5578.935547
1543.780631	0.097126	0.388243	5667.320801
1543.781539	0.097152	0.388243	5755.534668
1543.782429	0.097159	0.388243	5842.006348
1543.783355	0.097185	0.388243	5931.999512
1544.781514	1.394883	0.415672	608.168884
1544.782446	1.915631	0.415672	2393.537109
1544.783373	1.877794	0.415672	4134.252441
1544.784297	0.992212	0.415672	5051.056152
1544.785185	0.102429	0.415672	5142.013184
1544.786117	0.097167	0.415672	5232.572754
1544.787013	0.097178	0.415672	5319.644043
1544.787912	0.097244	0.415672	5407.065918
1544.788801	0.097229	0.415672	5493.502441
1544.789753	0.097236	0.415672	5586.071289
1544.790662	0.097189	0.415672	5674.416016
1544.791561	0.097170	0.415672	5761.772461
1544.792481	0.097200	0.415672	5851.196289
1544.793388	0.097167	0.415672	5939.326660
1545.783124	1.404562	0.392191	616.602600
1545.784048	1.916561	0.392191	2387.505371
1545.784950	1.879424	0.392191	4082.745605
1545.785904	0.998247	0.392191	5035.073242
1545.786809	0.101979	0.392191	5127.364258
1545.787709	0.097086	0.392191	5214.741699
1545.788599	0.097130	0.392191	5301.187500
1545.789539	0.097229	0.392191	5392.583008
1545.790438	0.097207	0.392191	5479.972168
1545.791337	0.097145	0.392191	5567.305176
1545.792230	0.097196	0.392191	5654.101074
1545.793186	0.097178	0.392191	5747.002930
1545.794095	0.097130	0.392191	5835.294434
1545.794990	0.097123	0.392191	5922.219238
1546.796045	1.486549	0.413920	738.814880
1546.796957	1.916993	0.413920	2487.112793
1546.797863	1.876271	0.413920	4187.014160
1546.798756	0.974132	0.413920	5056.914062
1546.799698	0.100378	0.413920	5151.470703
1546.800609	0.097072	0.413920	5239.902832
1546.801501	0.097108	0.413920	5326.523437
1546.802438	0.097156	0.413920	5417.558594
1546.803343	0.097192	0.413920	5505.517578
1546.804248	0.097137	0.413920	5593.426758
1546.805134	0.097064	0.413920	5679.425781
1546.806091	0.097134	0.413920	5772.382812
1546.806993	0.097115	0.413920	5859.980957
1546.807898	0.097200	0.413920	5947.946777
1547.795534	1.394315	0.389327	606.527161
1547.796470	1.915638	0.389327	2399.564697
1547.797394	1.877607	0.389327	4134.474121
1547.798299	1.022864	0.389327	5060.166016
1547.799183	0.103414	0.389327	5151.584473
1547.800131	0.097090	0.389327	5243.625488
1547.801026	0.097145	0.389327	5330.569824
1547.801940	0.097126	0.389327	5419.343262
1547.802833	0.097126	0.389327	5506.077148
1547.803794	0.097079	0.389327	5599.370117
1547.804699	0.097156	0.389327	5687.295898
1547.805591	0.097072	0.389327	5773.883789
1547.806528	0.097200	0.389327	5864.959961
1547.807433	0.097101	0.389327	5952.836426
1548.810619	1.475266	0.410951	718.454590
1548.811516	1.917327	0.410951	2438.296631
1548.812474	1.875630	0.410951	4235.149902
1548.813395	0.906819	0.410951	5070.330078
1548.814292	0.100247	0.410951	5160.251465
1548.815181	0.097130	0.410951	5246.600098
1548.816127	0.097178	0.410951	5338.530273
1548.817036	0.097181	0.410951	5426.868164
1548.817935	0.097167	0.410951	5514.221191
1548.818859	0.097181	0.410951	5604.016602
1548.819762	0.097200	0.410951	5691.788086
1548.820663	0.097072	0.410951	5779.249512
1548.821550	0.097207	0.410951	5865.472168
1548.822499	0.097266	0.410951	5957.777344
1549.807692	1.403185	0.394552	621.610840
1549.808630	1.915492	0.394552	2418.342285
1549.809554	1.877263	0.394552	4152.933594
1549.810483	0.958063	0.394552	5042.973633
1549.811381	0.101202	0.394552	5133.853516
1549.812319	0.097174	0.394552	5225.002930
1549.813225	0.097189	0.394552	5313.055664
1549.814125	0.097192	0.394552	5400.528809
1549.815013	0.097101	0.394552	5486.754395
1549.815967	0.097244	0.394552	5579.524902
1549.816881	0.097255	0.394552	5668.415527
1549.817773	0.097178	0.394552	5755.098145
1549.818716	0.097222	0.394552	5846.778320
1549.819610	0.097324	0.394552	5933.786133
1550.823423	1.457413	0.410786	717.047363
1550.824345	1.916924	0.410786	2484.451172
1550.825278	1.874799	0.410786	4233.638184
1550.826178	0.923939	0.410786	5065.183594
1550.827136	0.099338	0.410786	5160.349609
1550.828055	0.097035	0.410786	5249.524902
1550.828946	0.097104	0.410786	5336.044922
1550.829887	0.097189	0.410786	5427.499512
1550.830791	0.097115	0.410786	5515.291992
1550.831715	0.097130	0.410786	5605.040039
1550.832603	0.097145	0.410786	5691.304687
1550.833561	0.097097	0.410786	5784.323730
1550.834462	0.097115	0.410786	5871.824707
1550.835351	0.097170	0.410786	5958.208984
1551.820998	1.392477	0.399301	607.119873
1551.821894	1.915770	0.399301	2323.649902
1551.822846	1.878424	0.399301	4111.909668
1551.823766	1.016858	0.399301	5047.418945
1551.824658	0.102719	0.399301	5139.043945
1551.825580	0.097163	0.399301	5228.628418
1551.826496	0.097141	0.399301	5317.609863
1551.827392	0.097115	0.399301	5404.625488
1551.828282	0.097159	0.399301	5491.097168
1551.829232	0.097163	0.399301	5583.401855
1551.830141	0.097094	0.399301	5671.659668
1551.831029	0.097126	0.399301	5757.908203
1551.831949	0.097189	0.399301	5847.321777
1551.832852	0.097236	0.399301	5935.125977
1552.836821	1.413801	0.410399	634.796814
1552.837723	1.916843	0.410399	2363.789551
1552.838686	1.877439	0.410399	4171.763184
1552.839606	0.959535	0.410399	5054.535156
1552.840503	0.101609	0.410399	5145.678223
1552.841387	0.097028	0.410399	5231.450684
1552.842318	0.097313	0.410399	5322.049316
1552.843227	0.097152	0.410399	5410.360352
1552.844124	0.097185	0.410399	5497.535156
1552.845054	0.097240	0.410399	5587.968262
1552.845965	0.097181	0.410399	5676.500488
1552.846861	0.097181	0.410399	5763.575195
1552.847749	0.097119	0.410399	5849.816895
1552.848704	0.097262	0.410399	5942.702148
1553.834451	1.397391	0.396332	614.852173
1553.835352	1.916620	0.396332	2341.726562
1553.836288	1.879453	0.396332	4100.894531
1553.837213	0.997852	0.396332	5023.907227
1553.838138	0.101158	0.396332	5117.479004
1553.839027	0.097075	0.396332	5203.778809
1553.839967	0.097163	0.396332	5295.112305
1553.840860	0.097108	0.396332	5381.830078
1553.841746	0.097181	0.396332	5467.932617
1553.842682	0.097185	0.396332	5558.897949
1553.843580	0.097137	0.396332	5646.127441
1553.844498	0.097148	0.396332	5735.309570
1553.845396	0.097196	0.396332	5822.591797
1553.846326	0.097185	0.396332	5912.974121
1554.850027	1.438641	0.409533	668.968201
1554.850928	1.916975	0.409533	2396.162842
1554.851862	1.877274	0.409533	4149.536621
1554.852788	0.960934	0.409533	5039.361328
1554.853693	0.101206	0.409533	5130.952637
1554.854581	0.097094	0.409533	5217.171875
1554.855529	0.097211	0.409533	5309.327637
1554.856432	0.097123	0.409533	5397.029297
1554.857325	0.097156	0.409533	5483.789551
1554.858260	0.097189	0.409533	5574.661133
1554.859161	0.097218	0.409533	5662.254395
1554.860060	0.097203	0.409533	5749.640137
1554.860947	0.097178	0.409533	5835.836914
1554.861880	0.097262	0.409533	5926.582520
1555.847881	1.407627	0.394149	613.725342
1555.848849	1.917535	0.394149	2469.899658
1555.849764	1.876285	0.394149	4186.700684
1555.850673	0.962849	0.394149	5061.930664
1555.851608	0.101173	0.394149	5156.527344
1555.852514	0.097013	0.394149	5244.420898
1555.853415	0.097075	0.394149	5331.885742
1555.854304	0.097075	0.394149	5418.185547
1555.855242	0.097112	0.394149	5509.276367
1555.856147	0.097053	0.394149	5597.109375
1555.857036	0.097046	0.394149	5683.383301
1555.857948	0.097119	0.394149	5771.956055
1555.858872	0.097090	0.394149	5861.666992
1555.859779	0.097035	0.394149	5949.677734
1556.863314	1.397249	0.407495	613.392090
1556.864206	1.916228	0.407495	2322.667480
1556.865150	1.878702	0.407495	4096.162598
1556.866087	1.001382	0.407495	5034.457520
1556.866987	0.101843	0.407495	5126.116211
1556.867914	0.096954	0.407495	5215.992676
1556.868834	0.097148	0.407495	5305.369141
1556.869738	0.097061	0.407495	5393.111816
1556.870630	0.097094	0.407495	5479.719238
1556.871561	0.097090	0.407495	5570.109863
1556.872460	0.097112	0.407495	5657.413574
1556.873358	0.097064	0.407495	5744.577148
1556.874249	0.097072	0.407495	5831.067871
1556.875184	0.097094	0.407495	5921.850098
1557.861320	1.393008	0.397150	604.565369
1557.862263	1.916023	0.397150	2411.375000
1557.863183	1.877593	0.397150	4138.760254
1557.864117	0.958498	0.397150	5033.998047
1557.865004	0.101525	0.397150	5124.050293
1557.865967	0.096995	0.397150	5217.456055
1557.866859	0.096962	0.397150	5303.945801
1557.867751	0.096998	0.397150	5390.468262
1557.868674	0.097013	0.397150	5480.011230
1557.869591	0.097009	0.397150	5568.968750
1557.870491	0.097057	0.397150	5656.319824
1557.871380	0.097079	0.397150	5742.623047
1557.872306	0.097119	0.397150	5832.555176
1557.873223	0.097017	0.397150	5921.519531
1558.877006	1.400325	0.412192	611.941895
1558.877968	1.915799	0.412192	2454.940918
1558.878878	1.877135	0.412192	4163.133789
1558.879783	0.987067	0.412192	5056.429199
1558.880673	0.102067	0.412192	5147.268555
1558.881609	0.097002	0.412192	5238.062500
1558.882520	0.097075	0.412192	5326.498047
1558.883420	0.097031	0.412192	5413.826172
1558.884338	0.097115	0.412192	5502.978027
1558.885256	0.097115	0.412192	5592.129883
1558.886160	0.097039	0.412192	5679.852539
1558.887051	0.096995	0.412192	5766.274902
1558.887983	0.097156	0.412192	5856.824219
1558.888885	0.097086	0.412192	5944.395996
1559.875666	1.417771	0.391196	633.743652
1559.876570	1.916777	0.391196	2366.510498
1559.877463	1.879706	0.391196	4045.087891
1559.878427	1.007900	0.391196	5016.704102
1559.879328	0.102458	0.391196	5109.019043
1559.880224	0.096936	0.391196	5195.873535
1559.881162	0.097086	0.391196	5286.940430
1559.882064	0.097134	0.391196	5374.555176
1559.882966	0.097046	0.391196	5462.090820
1559.883860	0.097079	0.391196	5548.879395
1559.884796	0.097115	0.391196	5639.779297
1559.885698	0.097075	0.391196	5727.341309
1559.886604	0.097002	0.391196	5815.225098
1559.887492	0.097097	0.391196	5901.447266
1560.890879	1.422535	0.413243	701.309937
1560.891808	1.917286	0.413243	2482.468994
1560.892712	1.876025	0.413243	4178.395996
1560.893613	0.967478	0.413243	5050.093750
1560.894567	0.100664	0.413243	5146.127441
1560.895469	0.097068	0.413243	5233.682617
1560.896363	0.097068	0.413243	5320.461426
1560.897248	0.097094	0.413243	5406.389160
1560.898189	0.097167	0.413243	5497.823242
1560.899102	0.097108	0.413243	5586.482910
1560.899998	0.097112	0.413243	5673.495117
1560.900927	0.097163	0.413243	5763.759766
1560.901838	0.097134	0.413243	5852.248535
1560.902735	0.097104	0.413243	5939.351074
1561.889881	1.417727	0.391869	635.141724
1561.890781	1.916488	0.391869	2359.980957
1561.891744	1.877234	0.391869	4167.757324
1561.892658	0.968210	0.391869	5052.701660
1561.893571	0.100876	0.391869	5144.801758
1561.894472	0.097006	0.391869	5232.203613
1561.895404	0.097068	0.391869	5322.670898
1561.896317	0.097013	0.391869	5411.243652
1561.897211	0.097050	0.391869	5498.005859
1561.898155	0.097057	0.391869	5589.627441
1561.899064	0.097046	0.391869	5677.842285
1561.899966	0.097061	0.391869	5765.391113
1561.900854	0.097079	0.391869	5851.597168
1561.901800	0.097101	0.391869	5943.454590
1562.904310	1.462273	0.416341	709.202393
1562.905228	1.917099	0.416341	2469.099609
1562.906134	1.876970	0.416341	4169.634766
1562.907031	1.001646	0.416341	5068.110840
1562.907983	0.100594	0.416341	5163.876953
1562.908892	0.097072	0.416341	5252.114746
1562.909784	0.097108	0.416341	5338.735352
1562.910714	0.097061	0.416341	5429.001465
1562.911623	0.097119	0.416341	5517.282715
1562.912535	0.097104	0.416341	5605.841797
1562.913435	0.097068	0.416341	5693.203125
1562.914370	0.097057	0.416341	5783.951172
1562.915276	0.097104	0.416341	5871.927734
1562.916182	0.097061	0.416341	5959.864746
1563.905377	1.424220	0.390741	650.868530
1563.906275	1.916906	0.390741	2372.249512
1563.907203	1.879131	0.390741	4116.083008
1563.908127	1.017180	0.390741	5055.957520
1563.909038	0.102418	0.390741	5149.260742
1563.909925	0.097009	0.390741	5235.308105
1563.910853	0.097130	0.390741	5325.444824
1563.911765	0.097108	0.390741	5414.007324
1563.912667	0.097104	0.390741	5501.595703
1563.913553	0.097079	0.390741	5587.607422
1563.914510	0.097104	0.390741	5680.536621
1563.915411	0.097002	0.390741	5767.935547
1563.916301	0.097024	0.390741	5854.286621
1563.917222	0.097156	0.390741	5943.767090
1564.916942	1.395282	0.417150	611.133545
1564.917836	1.915583	0.417150	2323.665039
1564.918804	1.877681	0.417150	4141.259766
1564.919721	0.989030	0.417150	5048.199707
1564.920611	0.102217	0.417150	5139.172852
1564.921559	0.097017	0.417150	5231.144531
1564.922470	0.097097	0.417150	5319.600098
1564.923390	0.097104	0.417150	5408.936035
1564.924279	0.097101	0.417150	5495.258789
1564.925220	0.097009	0.417150	5586.544434
1564.926130	0.097024	0.417150	5674.836426
1564.927022	0.097017	0.417150	5761.375000
1564.927927	0.097031	0.417150	5849.188477
1564.928878	0.097017	0.417150	5941.451172
1565.922510	1.394524	0.388771	614.985046
1565.923402	1.915865	0.388771	2323.937012
1565.924346	1.878684	0.388771	4097.415039
1565.925282	1.001235	0.388771	5034.571289
1565.926182	0.101858	0.388771	5126.243164
1565.927108	0.097064	0.388771	5216.124512
1565.928011	0.097218	0.388771	5303.912598
1565.928913	0.097072	0.388771	5391.471191
1565.929802	0.097057	0.388771	5477.754883
1565.930745	0.097152	0.388771	5569.369141
1565.931648	0.097115	0.388771	5657.064453
1565.932544	0.097097	0.388771	5744.063477
1565.933434	0.097083	0.388771	5830.466797
1565.934374	0.097152	0.388771	5921.789551
1566.929226	1.396454	0.420256	610.250366
1566.930122	1.915715	0.420256	2326.731445
1566.931080	1.878135	0.420256	4125.984375
1566.932010	0.988927	0.420256	5045.686523
1566.932899	0.102096	0.420256	5136.449707
1566.933852	0.097024	0.420256	5228.913574
1566.934744	0.097137	0.420256	5315.560059
1566.935647	0.097057	0.420256	5403.202637
1566.936534	0.097086	0.420256	5489.317871
1566.937473	0.097225	0.420256	5580.612305
1566.938387	0.097178	0.420256	5669.432617
1566.939288	0.097137	0.420256	5756.953613
1566.940193	0.097163	0.420256	5844.886230
1566.941125	0.097141	0.420256	5935.421875
1567.939658	1.393656	0.390048	611.815002
1567.940620	1.917499	0.390048	2456.448730
1567.941539	1.876227	0.390048	4180.701172
1567.942458	0.948538	0.390048	5052.407227
1567.943348	0.101312	0.390048	5142.575195
1567.944299	0.097083	0.390048	5234.900879
1567.945211	0.097042	0.390048	5323.403320
1567.946101	0.097101	0.390048	5409.823242
1567.947030	0.097148	0.390048	5500.074219
1567.947935	0.097079	0.390048	5587.930664
1567.948835	0.097108	0.390048	5675.328125
1567.949725	0.097086	0.390048	5761.734863
1567.950671	0.097137	0.390048	5853.626953
1567.951579	0.097115	0.390048	5941.807617
1568.941275	1.411860	0.422959	628.277832
1568.942176	1.916638	0.422959	2355.168701
1568.943073	1.880211	0.422959	4041.718262
1568.944026	1.033228	0.422959	5026.384277
1568.944939	0.102422	0.422959	5119.895508
1568.945843	0.097061	0.422959	5207.638184
1568.946734	0.097020	0.422959	5294.083008
1568.947685	0.097108	0.422959	5386.432617
1568.948599	0.097009	0.422959	5475.099121
1568.949496	0.097042	0.422959	5562.145996
1568.950386	0.097123	0.422959	5648.585449
1568.951316	0.097159	0.422959	5738.943848
1568.952219	0.097090	0.422959	5826.616211
1568.953106	0.097126	0.422959	5912.767578
1569.956874	1.456469	0.390773	732.603699
1569.957789	1.917070	0.390773	2486.722900
1569.958694	1.876575	0.390773	4185.022949
1569.959589	0.979398	0.390773	5061.584473
1569.960529	0.100133	0.390773	5155.709473
1569.961440	0.097017	0.390773	5244.091797
1569.962336	0.097112	0.390773	5331.104004
1569.963255	0.097024	0.390773	5420.269043
1569.964173	0.097148	0.390773	5509.451172
1569.965086	0.097075	0.390773	5598.081055
1569.965984	0.097064	0.390773	5685.244629
1569.966920	0.097167	0.390773	5776.192871
1569.967824	0.097075	0.390773	5863.948730
1569.968719	0.097094	0.390773	5950.847656
1570.952914	1.414014	0.425646	632.064087
1570.953887	1.917045	0.425646	2497.348633
1570.954803	1.875714	0.425646	4215.502930
1570.955708	0.936592	0.425646	5063.118652
1570.956653	0.100781	0.425646	5158.356934
1570.957554	0.097141	0.425646	5245.880859
1570.958456	0.097020	0.425646	5333.393066
1570.959344	0.097075	0.425646	5419.595703
1570.960295	0.097057	0.425646	5511.896973
1570.961200	0.097115	0.425646	5599.786621
1570.962108	0.097072	0.425646	5687.927734
1570.962995	0.097057	0.425646	5774.017090
1570.963939	0.097134	0.425646	5865.711426
1570.964843	0.097068	0.425646	5953.460937
1571.972441	1.415717	0.391466	638.488159
1571.973336	1.916638	0.391466	2353.879150
1571.974277	1.878618	0.391466	4121.658691
1571.975190	1.023376	0.391466	5056.001465
1571.976110	0.101719	0.391466	5149.582520
1571.977004	0.096998	0.391466	5236.298828
1571.977951	0.097090	0.391466	5328.242676
1571.978853	0.097075	0.391466	5415.804687
1571.979744	0.097167	0.391466	5502.380371
1571.980675	0.097196	0.391466	5592.870117
1571.981580	0.097050	0.391466	5680.700195
1571.982480	0.097006	0.391466	5768.005371
1571.983373	0.097072	0.391466	5854.690430
1571.984306	0.097123	0.391466	5945.306152
1572.964729	1.468696	0.423588	710.848999
1572.965634	1.917078	0.423588	2445.804199
1572.966584	1.876099	0.423588	4228.097656
1572.967499	0.929154	0.423588	5078.273437
1572.968396	0.100781	0.423588	5168.674316
1572.969284	0.097017	0.423588	5254.825195
1572.970214	0.097086	0.423588	5345.115234
1572.971124	0.097115	0.423588	5433.490234
1572.972021	0.097068	0.423588	5520.560059
1572.972938	0.097145	0.423588	5609.641602
1572.973866	0.097174	0.423588	5699.819336
1572.974773	0.097083	0.423588	5787.873047
1572.975666	0.097053	0.423588	5874.541504
1572.976606	0.097145	0.423588	5965.857422
1573.986664	1.445735	0.394366	666.483765
1573.987584	1.916906	0.394366	2430.036865
1573.988497	1.877626	0.394366	4144.309082
1573.989400	0.998452	0.394366	5045.911133
1573.990350	0.100583	0.394366	5141.465332
1573.991260	0.097013	0.394366	5229.747070
1573.992155	0.097035	0.394366	5316.593262
1573.993091	0.097097	0.394366	5407.476074
1573.993993	0.097145	0.394366	5495.100586
1573.994890	0.097020	0.394366	5582.127930
1573.995778	0.097020	0.394366	5668.281738
1573.996722	0.097097	0.394366	5759.941406
1573.997623	0.097108	0.394366	5847.436035
1573.998528	0.097061	0.394366	5935.275879
1574.977760	1.439129	0.430226	659.120850
1574.978664	1.917099	0.430226	2392.178711
1574.979607	1.877629	0.430226	4162.783203
1574.980536	0.957198	0.430226	5052.020508
1574.981441	0.100928	0.430226	5143.360352
1574.982332	0.097031	0.430226	5229.815430
1574.983283	0.097057	0.430226	5322.116699
1574.984176	0.097057	0.430226	5408.788574
1574.985077	0.097064	0.430226	5496.243652
1574.985966	0.097042	0.430226	5582.514160
1574.986912	0.097178	0.430226	5674.444336
1574.987817	0.096995	0.430226	5762.224609
1574.988715	0.097020	0.430226	5849.348633
1574.989633	0.097083	0.430226	5938.470215
1575.999312	1.401171	0.402443	623.520935
1576.000291	1.917199	0.402443	2500.458252
1576.001196	1.875586	0.402443	4197.863281
1576.002107	0.943011	0.402443	5056.946777
1576.002999	0.101067	0.402443	5147.098633
1576.003951	0.096896	0.402443	5239.343262
1576.004857	0.096965	0.402443	5327.193848
1576.005749	0.097031	0.402443	5413.745605
1576.006676	0.097028	0.402443	5503.690430
1576.007581	0.097009	0.402443	5591.483887
1576.008471	0.097020	0.402443	5677.832031
1576.009414	0.097050	0.402443	5769.349609
1576.010319	0.097101	0.402443	5857.226074
1576.011224	0.096973	0.402443	5944.986328
1576.991819	1.397249	0.427950	609.200378
1576.992777	1.915613	0.427950	2444.357422
1576.993694	1.877263	0.427950	4165.807617
1576.994604	0.983705	0.427950	5060.979004
1576.995494	0.102166	0.427950	5151.906250
1576.996452	0.096991	0.427950	5244.823730
1576.997346	0.097064	0.427950	5331.599121
1576.998251	0.097115	0.427950	5419.488770
1576.999157	0.097094	0.427950	5507.455566
1577.000094	0.097097	0.427950	5598.435547
1577.001007	0.097009	0.427950	5687.004883
1577.001908	0.097057	0.427950	5774.453125
1577.002843	0.097167	0.427950	5865.304199
1577.003747	0.096998	0.427950	5952.990723
1578.011465	1.397622	0.412377	612.158508
1578.012364	1.915613	0.412377	2334.294434
1578.013342	1.876934	0.412377	4169.935547
1578.014267	0.951504	0.412377	5050.076660
1578.015166	0.101030	0.412377	5140.902832
1578.016109	0.097094	0.412377	5232.461914
1578.017010	0.097046	0.412377	5319.900391
1578.017907	0.097057	0.412377	5406.960449
1578.018792	0.097020	0.412377	5492.823242
1578.019730	0.097108	0.412377	5583.910645
1578.020645	0.097075	0.412377	5672.734375
1578.021540	0.097061	0.412377	5759.603516
1578.022459	0.097094	0.412377	5848.832520
1578.023380	0.097145	0.412377	5938.302734
1579.007696	1.397150	0.439226	618.937317
1579.008599	1.916715	0.439226	2349.730957
1579.009495	1.880339	0.439226	4034.514893
1579.010477	0.977172	0.439226	4994.097656
1579.011383	0.101660	0.439226	5086.201660
1579.012270	0.097013	0.439226	5172.251953
1579.013180	0.097031	0.439226	5260.550293
1579.014121	0.096991	0.439226	5351.818848
1579.015014	0.097006	0.439226	5438.444824
1579.015902	0.097072	0.439226	5524.644531
1579.016833	0.096998	0.439226	5614.949707
1579.017733	0.097050	0.439226	5702.294434
1579.018648	0.097013	0.439226	5791.061035
1579.019541	0.097009	0.439226	5877.690430
1580.022548	1.460881	0.424059	749.432129
1580.023460	1.917085	0.424059	2497.813721
1580.024367	1.876179	0.424059	4199.508301
1580.025258	0.966270	0.424059	5060.454590
1580.026193	0.100173	0.424059	5154.116699
1580.027103	0.097009	0.424059	5242.395020
1580.028001	0.097075	0.424059	5329.568359
1580.028916	0.097075	0.424059	5418.392090
1580.029839	0.097108	0.424059	5508.022949
1580.030743	0.097006	0.424059	5595.715820
1580.031637	0.097079	0.424059	5682.504395
1580.032570	0.097090	0.424059	5773.089355
1580.033472	0.097031	0.424059	5860.611328
1580.034365	0.097053	0.424059	5947.279785
1581.024843	1.392290	0.441929	604.253845
1581.025796	1.916272	0.441929	2430.461182
1581.026715	1.877530	0.441929	4155.911621
1581.027622	1.000118	0.441929	5063.019043
1581.028506	0.102700	0.441929	5153.806152
1581.029440	0.097163	0.441929	5244.556641
1581.030351	0.097086	0.441929	5333.001953
1581.031246	0.097189	0.441929	5419.985840
1581.032167	0.097134	0.441929	5509.446289
1581.033088	0.097185	0.441929	5598.953613
1581.033994	0.097035	0.441929	5686.867187
1581.034889	0.097031	0.441929	5773.709961
1581.035825	0.097123	0.441929	5864.616699
1581.036728	0.097141	0.441929	5952.334961
1582.034382	1.403214	0.429618	618.817444
1582.035278	1.915627	0.429618	2335.219482
1582.036241	1.877355	0.429618	4143.112305
1582.037159	0.989062	0.429618	5051.071777
1582.038049	0.102147	0.429618	5141.982910
1582.038989	0.097006	0.429618	5233.167969
1582.039889	0.097134	0.429618	5320.588379
1582.040786	0.097035	0.429618	5407.628906
1582.041676	0.097094	0.429618	5494.041992
1582.042615	0.097167	0.429618	5585.281738
1582.043518	0.097053	0.429618	5672.920898
1582.044426	0.097042	0.429618	5761.035156
1582.045328	0.096998	0.429618	5848.527832
1582.046249	0.097112	0.429618	5937.967773
1583.040726	1.404456	0.438815	627.791626
1583.041627	1.916913	0.438815	2354.930176
1583.042519	1.880233	0.438815	4032.098145
1583.043497	0.992417	0.438815	5002.682129
1583.044388	0.102294	0.438815	5093.825684
1583.045280	0.097031	0.438815	5180.377441
1583.046199	0.097115	0.438815	5269.626465
1583.047117	0.097039	0.438815	5358.708008
1583.048013	0.097028	0.438815	5445.644531
1583.048903	0.097112	0.438815	5532.074219
1583.049837	0.097086	0.438815	5622.752930
1583.050749	0.096980	0.438815	5711.198730
1583.051667	0.097064	0.438815	5800.303711
1583.052555	0.097020	0.438815	5886.457520
1584.046816	1.425938	0.426081	647.375610
1584.047713	1.916986	0.426081	2366.912109
1584.048658	1.878629	0.426081	4142.216797
1584.049579	0.994131	0.426081	5057.811523
1584.050470	0.102151	0.426081	5148.828125
1584.051359	0.097006	0.426081	5235.065918
1584.052301	0.097137	0.426081	5326.569336
1584.053205	0.097061	0.426081	5414.312012
1584.054108	0.097028	0.426081	5501.927734
1584.054996	0.097097	0.426081	5588.149902
1584.055938	0.097126	0.426081	5679.643066
1584.056847	0.097068	0.426081	5767.877930
1584.057738	0.097002	0.426081	5854.306641
1584.058673	0.097152	0.426081	5945.144043
1585.056091	1.427508	0.434573	642.378784
1585.056996	1.917122	0.434573	2377.374023
1585.057890	1.880471	0.434573	4058.515137
1585.058854	1.013060	0.434573	5035.104980
1585.059748	0.102220	0.434573	5126.490234
1585.060651	0.096965	0.434573	5214.049805
1585.061537	0.096976	0.434573	5299.970703
1585.062494	0.097163	0.434573	5392.955566
1585.063398	0.097097	0.434573	5480.731445
1585.064301	0.096987	0.434573	5568.311035
1585.065239	0.097057	0.434573	5659.350586
1585.066135	0.097167	0.434573	5746.412109
1585.067032	0.097050	0.434573	5833.465332
1585.067920	0.097053	0.434573	5919.648437
1586.060120	1.417236	0.424140	637.756348
1586.061020	1.916781	0.424140	2362.859375
1586.061968	1.878358	0.424140	4143.542969
1586.062881	1.000378	0.424140	5056.888672
1586.063783	0.102052	0.424140	5148.939453
1586.064672	0.096965	0.424140	5235.141602
1586.065622	0.097075	0.424140	5327.363281
1586.066527	0.097028	0.424140	5415.173340
1586.067422	0.096980	0.424140	5501.970215
1586.068344	0.097094	0.424140	5591.490234
1586.069244	0.097068	0.424140	5678.851562
1586.070154	0.097017	0.424140	5767.136719
1586.071048	0.097046	0.424140	5853.895508
1586.071974	0.097064	0.424140	5943.776855
1587.071047	1.392455	0.427016	605.717834
1587.071983	1.915517	0.427016	2398.642090
1587.072915	1.877109	0.427016	4148.107910
1587.073834	0.977260	0.427016	5046.209473
1587.074724	0.101781	0.427016	5136.794434
1587.075661	0.097068	0.427016	5227.747070
1587.076572	0.096958	0.427016	5316.075684
1587.077468	0.097024	0.427016	5403.009277
1587.078356	0.097046	0.427016	5489.186035
1587.079303	0.097072	0.427016	5581.112793
1587.080197	0.096973	0.427016	5667.806152
1587.081090	0.097002	0.427016	5754.428711
1587.082017	0.097075	0.427016	5844.417480
1587.082933	0.097053	0.427016	5933.318359
1588.072664	1.419119	0.419309	637.184265
1588.073563	1.916689	0.419309	2360.288086
1588.074456	1.880142	0.419309	4039.254395
1588.075415	1.019744	0.419309	5017.188477
1588.076326	0.102385	0.419309	5110.461426
1588.077226	0.097020	0.419309	5197.779785
1588.078141	0.097137	0.419309	5286.660645
1588.079060	0.097126	0.419309	5375.919922
1588.079965	0.096921	0.419309	5463.633789
1588.080862	0.097013	0.419309	5550.654297
1588.081799	0.097148	0.419309	5641.682617
1588.082704	0.097057	0.419309	5729.519043
1588.083602	0.097050	0.419309	5816.669434
1588.084487	0.097090	0.419309	5902.593750
1589.085171	1.454813	0.426605	683.762207
1589.086090	1.916850	0.426605	2445.347656
1589.086998	1.877644	0.426605	4150.248535
1589.087893	1.004861	0.426605	5049.599121
1589.088843	0.101206	0.426605	5145.744629
1589.089743	0.096914	0.426605	5232.967285
1589.090638	0.097024	0.426605	5319.803711
1589.091557	0.097094	0.426605	5409.032715
1589.092463	0.097108	0.426605	5497.012695
1589.093369	0.097083	0.426605	5584.969238
1589.094260	0.097123	0.426605	5671.505859
1589.095208	0.097148	0.426605	5763.602539
1589.096109	0.096962	0.426605	5850.964844
1589.097012	0.097035	0.426605	5938.587402
1590.086489	1.414585	0.416844	633.734070
1590.087389	1.916887	0.416844	2358.932617
1590.088300	1.879702	0.416844	4071.341309
1590.089244	1.017693	0.416844	5032.043457
1590.090143	0.102561	0.416844	5124.245605
1590.091031	0.096998	0.416844	5210.379883
1590.091963	0.097042	0.416844	5300.823242
1590.092878	0.096940	0.416844	5389.522949
1590.093785	0.097039	0.416844	5477.537109
1590.094675	0.096969	0.416844	5563.839355
1590.095624	0.097108	0.416844	5655.995117
1590.096537	0.096921	0.416844	5744.484375
1590.097431	0.097039	0.416844	5831.236816
1590.098352	0.097017	0.416844	5920.588867
1591.099213	1.409945	0.419680	624.605652
1591.100118	1.916818	0.419680	2359.325439
1591.101010	1.879669	0.419680	4035.990234
1591.101981	1.002781	0.419680	5009.690430
1591.102888	0.102122	0.419680	5102.314453
1591.103780	0.097017	0.419680	5188.853027
1591.104713	0.097170	0.419680	5279.513184
1591.105617	0.097163	0.419680	5367.348633
1591.106514	0.097090	0.419680	5454.437988
1591.107401	0.097104	0.419680	5540.569824
1591.108339	0.097108	0.419680	5631.657227
1591.109246	0.097130	0.419680	5719.754395
1591.110148	0.097090	0.419680	5807.329590
1591.111040	0.097061	0.419680	5893.907715
1592.099929	1.407455	0.415124	622.094971
1592.100821	1.915836	0.415124	2331.020752
1592.101785	1.877868	0.415124	4141.285156
1592.102708	0.981976	0.415124	5047.649414
1592.103605	0.101759	0.415124	5138.927246
1592.104546	0.096943	0.415124	5230.150879
1592.105442	0.097083	0.415124	5317.136719
1592.106341	0.097028	0.415124	5404.364746
1592.107231	0.097057	0.415124	5490.745605
1592.108158	0.097072	0.415124	5580.730957
1592.109060	0.097072	0.415124	5668.289551
1592.109964	0.097009	0.415124	5755.985840
1592.110854	0.097079	0.415124	5842.386230
1592.111804	0.097126	0.415124	5934.656250
1593.113542	1.394443	0.420768	605.188416
1593.114494	1.915540	0.420768	2428.782227
1593.115416	1.876981	0.420768	4159.358887
1593.116327	0.979211	0.420768	5051.420410
1593.117216	0.101949	0.420768	5142.053711
1593.118176	0.097024	0.420768	5235.196777
1593.119076	0.097101	0.420768	5322.587402
1593.119974	0.097013	0.420768	5409.705078
1593.120896	0.097020	0.420768	5499.157715
1593.121781	0.097064	0.420768	5585.059570
1593.122738	0.096976	0.420768	5677.865723
1593.123637	0.096980	0.420768	5765.050781
1593.124557	0.097068	0.420768	5854.353027
1593.125444	0.097061	0.420768	5940.445801
1594.114123	1.391144	0.415914	609.320984
1594.115093	1.917242	0.415914	2469.046143
1594.116021	1.875802	0.415914	4209.790039
1594.116926	0.940378	0.415914	5060.832520
1594.117851	0.100485	0.415914	5153.780762
1594.118768	0.097108	0.415914	5242.829102
1594.119673	0.097061	0.415914	5330.668945
1594.120565	0.097035	0.415914	5417.224121
1594.121506	0.097200	0.415914	5508.688965
1594.122420	0.097123	0.415914	5597.458984
1594.123319	0.097068	0.415914	5684.723145
1594.124247	0.097112	0.415914	5774.842773
1594.125148	0.097178	0.415914	5862.399902
1594.126063	0.097039	0.415914	5951.190430
1595.126851	1.387617	0.421771	598.062988
1595.127802	1.916693	0.421771	2420.838135
1595.128721	1.877395	0.421771	4146.164062
1595.129636	0.996302	0.421771	5057.780762
1595.130521	0.102598	0.421771	5148.579590
1595.131474	0.097042	0.421771	5241.061035
1595.132382	0.096965	0.421771	5329.105469
1595.133276	0.097064	0.421771	5415.880859
1595.134201	0.097097	0.421771	5505.695801
1595.135103	0.097079	0.421771	5593.260742
1595.136006	0.097024	0.421771	5680.873535
1595.136901	0.097020	0.421771	5767.706543
1595.137834	0.097222	0.421771	5858.414551
1595.138736	0.096995	0.421771	5945.903809
1596.127958	1.420957	0.414149	638.009705
1596.128874	1.916766	0.414149	2393.767822
1596.129783	1.879175	0.414149	4101.937500
1596.130727	1.009039	0.414149	5054.470703
1596.131626	0.101990	0.414149	5146.159668
1596.132535	0.096929	0.414149	5234.268066
1596.133424	0.097083	0.414149	5320.574219
1596.134363	0.097090	0.414149	5411.741699
1596.135270	0.097068	0.414149	5499.782227
1596.136172	0.097075	0.414149	5587.344238
1596.137064	0.097064	0.414149	5673.925293
1596.138017	0.097137	0.414149	5766.497070
1596.138921	0.096973	0.414149	5854.160156
1596.139817	0.097053	0.414149	5941.119629
1597.139934	1.426036	0.418097	650.272583
1597.140830	1.916741	0.418097	2367.672363
1597.141783	1.877827	0.418097	4157.241699
1597.142690	0.985730	0.418097	5051.298828
1597.143617	0.100898	0.418097	5144.831543
1597.144514	0.096940	0.418097	5231.786621
1597.145455	0.097013	0.418097	5323.075684
1597.146359	0.096969	0.418097	5410.735840
1597.147246	0.096965	0.418097	5496.744141
1597.148184	0.097068	0.418097	5587.793945
1597.149099	0.096936	0.418097	5676.490234
1597.149998	0.097031	0.418097	5763.721191
1597.150883	0.097090	0.418097	5849.645508
1597.151829	0.097104	0.418097	5941.506348
1598.141782	1.416834	0.414041	627.657227
1598.142687	1.917129	0.414041	2362.659180
1598.143582	1.879325	0.414041	4044.655029
1598.144560	0.978820	0.414041	5001.940430
1598.145466	0.101506	0.414041	5093.905273
1598.146367	0.096995	0.414041	5181.297363
1598.147299	0.097090	0.414041	5271.785156
1598.148197	0.097196	0.414041	5359.067383
1598.149089	0.097057	0.414041	5445.642090
1598.149975	0.096987	0.414041	5531.572754
1598.150920	0.096954	0.414041	5623.194824
1598.151817	0.097020	0.414041	5710.222168
1598.152725	0.097064	0.414041	5798.356445
1598.153616	0.097083	0.414041	5884.856934
1599.151319	1.411901	0.415547	625.471985
1599.152243	1.916382	0.415547	2396.208740
1599.153141	1.879296	0.415547	4083.816406
1599.154095	0.987074	0.415547	5025.484863
1599.154998	0.101741	0.415547	5117.356934
1599.155899	0.096969	0.415547	5204.726074
1599.156789	0.097046	0.415547	5291.096680
1599.157734	0.097152	0.415547	5382.905273
1599.158641	0.097061	0.415547	5470.938965
1599.159540	0.097024	0.415547	5558.163574
1599.160461	0.097104	0.415547	5647.596680
1599.161362	0.097101	0.415547	5735.084473
1599.162252	0.097050	0.415547	5821.458496
1599.163140	0.097119	0.415547	5907.700195
1600.155973	1.389913	0.407369	604.612305
1600.156904	1.915250	0.407369	2387.710449
1600.157849	1.877285	0.407369	4161.745117
1600.158769	0.958466	0.407369	5043.533203
1600.159657	0.101499	0.407369	5133.664551
1600.160603	0.096984	0.407369	5225.411133
1600.161502	0.097134	0.407369	5312.734375
1600.162401	0.097119	0.407369	5400.044434
1600.163288	0.097006	0.407369	5486.088379
1600.164219	0.097079	0.407369	5576.468750
1600.165126	0.097017	0.407369	5664.462891
1600.166020	0.097053	0.407369	5751.228516
1600.166946	0.097079	0.407369	5841.123535
1600.167861	0.097137	0.407369	5930.004395
1601.164243	1.415757	0.413891	630.011780
1601.165220	1.917195	0.413891	2503.111084
1601.166126	1.875857	0.413891	4202.637695
1601.167022	0.970602	0.413891	5072.296875
1601.167967	0.101250	0.413891	5167.978027
1601.168875	0.096951	0.413891	5256.009277
1601.169797	0.097145	0.413891	5345.576660
1601.170683	0.097145	0.413891	5431.646973
1601.171630	0.097075	0.413891	5523.577148
1601.172535	0.097094	0.413891	5611.446777
1601.173428	0.097013	0.413891	5698.079102
1601.174354	0.097031	0.413891	5787.930176
1601.175271	0.097039	0.413891	5876.914551
1601.176175	0.097064	0.413891	5964.660645
1602.169936	1.411952	0.407990	624.082764
1602.170895	1.916832	0.407990	2462.324951
1602.171811	1.875846	0.407990	4180.599609
1602.172719	0.965596	0.407990	5057.360352
1602.173656	0.101129	0.407990	5152.118164
1602.174564	0.097083	0.407990	5240.269043
1602.175473	0.097159	0.407990	5328.586914
1602.176361	0.097097	0.407990	5414.809082
1602.177307	0.097141	0.407990	5506.704590
1602.178214	0.097141	0.407990	5594.811523
1602.179107	0.097152	0.407990	5681.568359
1602.180014	0.097057	0.407990	5769.599121
1602.180929	0.097137	0.407990	5858.479980
1602.181837	0.097072	0.407990	5946.621094
1603.175249	1.398992	0.415700	618.354309
1603.176141	1.916451	0.415700	2327.829102
1603.177088	1.878230	0.415700	4106.512695
1603.178017	0.993677	0.415700	5029.638184
1603.178922	0.101689	0.415700	5121.666992
1603.179811	0.096980	0.415700	5207.882324
1603.180762	0.097108	0.415700	5300.231934
1603.181663	0.097035	0.415700	5387.660156
1603.182558	0.097042	0.415700	5474.513184
1603.183493	0.097094	0.415700	5565.295410
1603.184397	0.097104	0.415700	5653.077637
1603.185291	0.097020	0.415700	5739.813965
1603.186174	0.097057	0.415700	5825.515137
1603.187116	0.097156	0.415700	5917.035645
1604.184537	1.417079	0.405384	633.434265
1604.185437	1.916763	0.405384	2358.520752
1604.186329	1.880142	0.405384	4035.606934
1604.187287	1.026797	0.405384	5019.278320
1604.188202	0.102400	0.405384	5112.974121
1604.189099	0.096929	0.405384	5199.918945
1604.190023	0.097090	0.405384	5289.629883
1604.190920	0.097031	0.405384	5376.666992
1604.191822	0.097024	0.405384	5464.182617
1604.192711	0.096998	0.405384	5550.414062
1604.193663	0.097115	0.405384	5642.868164
1604.194567	0.097097	0.405384	5730.644043
1604.195460	0.097083	0.405384	5817.338867
1604.196349	0.097163	0.405384	5903.716797
1605.187071	1.444958	0.417134	710.919556
1605.187995	1.917001	0.417134	2482.228027
1605.188897	1.876824	0.417134	4175.123047
1605.189798	0.977527	0.417134	5055.875000
1605.190752	0.100042	0.417134	5151.314453
1605.191647	0.096984	0.417134	5238.114746
1605.192562	0.096987	0.417134	5326.857910
1605.193469	0.097046	0.417134	5414.878418
1605.194410	0.097050	0.417134	5506.202148
1605.195316	0.096991	0.417134	5594.076172
1605.196205	0.097031	0.417134	5680.336914
1605.197139	0.097046	0.417134	5770.977539
1605.198045	0.096998	0.417134	5858.857910
1605.198942	0.097079	0.417134	5945.937500
1606.199498	1.413541	0.413771	621.958191
1606.200475	1.917444	0.413771	2495.300781
1606.201396	1.875480	0.413771	4222.617676
1606.202304	0.928696	0.413771	5065.874023
1606.203249	0.100605	0.413771	5160.946289
1606.204157	0.097024	0.413771	5249.043945
1606.205056	0.097094	0.413771	5336.331055
1606.205945	0.097028	0.413771	5422.588379
1606.206885	0.097112	0.413771	5513.873535
1606.207792	0.097046	0.413771	5601.894043
1606.208687	0.097130	0.413771	5688.825684
1606.209595	0.097064	0.413771	5776.959961
1606.210522	0.097170	0.413771	5867.037109
1606.211425	0.097134	0.413771	5954.749023
1607.198040	1.420617	0.422641	633.594971
1607.198943	1.917111	0.422641	2364.745850
1607.199882	1.878340	0.422641	4128.506836
1607.200809	0.985312	0.422641	5041.891602
1607.201715	0.101367	0.422641	5133.730469
1607.202604	0.096929	0.422641	5219.899902
1607.203559	0.097123	0.422641	5312.652344
1607.204464	0.097046	0.422641	5400.479004
1607.205355	0.097046	0.422641	5486.946777
1607.206288	0.097079	0.422641	5577.521484
1607.207200	0.097174	0.422641	5666.144043
1607.208098	0.096962	0.422641	5753.215820
1607.208995	0.097083	0.422641	5840.298828
1607.209929	0.097126	0.422641	5931.015137
1608.214759	1.421561	0.410931	648.231934
1608.215664	1.916770	0.410931	2382.908936
1608.216590	1.878647	0.410931	4122.536133
1608.217527	0.978589	0.410931	5039.473633
1608.218415	0.101733	0.410931	5129.812988
1608.219301	0.097024	0.410931	5215.776367
1608.220241	0.097046	0.410931	5306.999512
1608.221159	0.097090	0.410931	5396.127930
1608.222062	0.097119	0.410931	5483.826660
1608.222948	0.097123	0.410931	5569.877441
1608.223906	0.097042	0.410931	5662.843750
1608.224808	0.097064	0.410931	5750.395508
1608.225696	0.097126	0.410931	5836.644043
1608.226632	0.097123	0.410931	5927.550781
1609.210210	1.449093	0.432486	673.828308
1609.211129	1.917059	0.432486	2435.605957
1609.212031	1.878029	0.432486	4129.587891
1609.212991	0.943608	0.432486	5035.452148
1609.213888	0.101078	0.432486	5126.119141
1609.214785	0.096954	0.432486	5213.087402
1609.215674	0.097050	0.432486	5299.364258
1609.216612	0.097167	0.432486	5390.506836
1609.217518	0.097061	0.432486	5478.443848
1609.218411	0.097031	0.432486	5565.092773
1609.219330	0.097108	0.432486	5654.334961
1609.220250	0.097090	0.432486	5743.657715
1609.221153	0.097002	0.432486	5831.250488
1609.222047	0.097050	0.432486	5918.012695
1610.229851	1.417500	0.415321	630.787537
1610.230764	1.916858	0.415321	2380.878662
1610.231669	1.879647	0.415321	4081.959473
1610.232613	1.024874	0.415321	5049.440918
1610.233528	0.101451	0.415321	5142.269043
1610.234440	0.096958	0.415321	5230.694824
1610.235340	0.097097	0.415321	5318.082031
1610.236279	0.097185	0.415321	5409.338867
1610.237185	0.097130	0.415321	5497.338867
1610.238085	0.097097	0.415321	5584.726562
1610.238974	0.097145	0.415321	5671.088379
1610.239912	0.097258	0.415321	5762.316895
1610.240823	0.097061	0.415321	5850.739258
1610.241720	0.097167	0.415321	5937.897949
1611.222602	1.397421	0.437989	609.275391
1611.223555	1.915635	0.437989	2434.875488
1611.224474	1.877164	0.437989	4159.989258
1611.225404	0.948798	0.437989	5042.371094
1611.226290	0.101353	0.437989	5132.169434
1611.227250	0.097028	0.437989	5225.315918
1611.228146	0.096954	0.437989	5312.187012
1611.229037	0.097053	0.437989	5398.661621
1611.229953	0.097064	0.437989	5487.572266
1611.230897	0.096969	0.437989	5579.110840
1611.231794	0.097035	0.437989	5666.151367
1611.232682	0.097039	0.437989	5752.321777
1611.233626	0.097031	0.437989	5843.919434
1611.234545	0.097072	0.437989	5933.127930
1612.243945	1.447280	0.414782	683.116211
1612.244851	1.917136	0.414782	2420.041504
1612.245791	1.877721	0.414782	4185.099121
1612.246713	0.955433	0.414782	5066.008789
1612.247608	0.101276	0.414782	5156.650391
1612.248494	0.097020	0.414782	5242.610352
1612.249445	0.097046	0.414782	5334.900879
1612.250345	0.097104	0.414782	5422.294922
1612.251249	0.097017	0.414782	5509.998047
1612.252137	0.096962	0.414782	5596.100098
1612.253090	0.097072	0.414782	5688.609375
1612.253997	0.096980	0.414782	5776.570312
1612.254895	0.096958	0.414782	5863.638672
1612.255818	0.097115	0.414782	5953.276367
1613.236192	1.438129	0.439423	655.786621
1613.237113	1.916906	0.439423	2421.256592
1613.238022	1.878215	0.439423	4128.554687
1613.238956	0.999507	0.439423	5062.094238
1613.239865	0.101631	0.439423	5154.476562
1613.240771	0.096929	0.439423	5242.293945
1613.241661	0.096998	0.439423	5328.622559
1613.242590	0.097046	0.439423	5418.778320
1613.243504	0.097042	0.439423	5507.475098
1613.244402	0.097039	0.439423	5594.615723
1613.245290	0.097006	0.439423	5680.756836
1613.246232	0.097123	0.439423	5772.246582
1613.247143	0.097017	0.439423	5860.628906
1613.248039	0.097020	0.439423	5947.559082
1614.257487	1.396494	0.411934	614.457397
1614.258381	1.916631	0.411934	2327.925293
1614.259329	1.878977	0.411934	4109.195312
1614.260245	1.018696	0.411934	5042.321289
1614.261141	0.102788	0.411934	5134.419434
1614.262024	0.096947	0.411934	5220.023437
1614.262955	0.097123	0.411934	5310.444824
1614.263863	0.096958	0.411934	5398.482910
1614.264758	0.097017	0.411934	5485.312988
1614.265684	0.097083	0.411934	5575.211426
1614.266595	0.097170	0.411934	5663.733887
1614.267500	0.096995	0.411934	5751.514160
1614.268390	0.097002	0.411934	5837.845703
1614.269332	0.097126	0.411934	5929.338867
1615.250899	1.398278	0.442734	615.242187
1615.251800	1.916821	0.442734	2342.298096
1615.252694	1.880208	0.442734	4023.203613
1615.253682	0.983511	0.442734	4994.912109
1615.254580	0.101766	0.442734	5086.298340
1615.255471	0.097046	0.442734	5172.766113
1615.256398	0.097101	0.442734	5262.778809
1615.257307	0.097028	0.442734	5350.977051
1615.258220	0.096954	0.442734	5439.496582
1615.259105	0.097064	0.442734	5525.398437
1615.260059	0.097079	0.442734	5618.011719
1615.260961	0.097042	0.442734	5705.543945
1615.261884	0.097079	0.442734	5795.147949
1615.262773	0.097039	0.442734	5881.415039
1616.269907	1.411326	0.410951	626.628601
1616.270810	1.917012	0.410951	2357.690186
1616.271703	1.880306	0.410951	4036.803711
1616.272671	1.013342	0.410951	5017.718750
1616.273580	0.102506	0.410951	5110.896973
1616.274471	0.096973	0.410951	5197.299805
1616.275410	0.097046	0.410951	5288.425781
1616.276317	0.097112	0.410951	5376.506348
1616.277222	0.097017	0.410951	5464.306152
1616.278114	0.097068	0.410951	5550.890625
1616.279043	0.097123	0.410951	5641.117676
1616.279947	0.097006	0.410951	5728.810547
1616.280849	0.097119	0.410951	5816.412109
1616.281738	0.097020	0.410951	5902.663086
1617.266253	1.400610	0.446070	613.467346
1617.267158	1.916788	0.446070	2348.160645
1617.268050	1.881398	0.446070	4026.367187
1617.269039	0.981570	0.446070	4997.139648
1617.269938	0.101741	0.446070	5088.604492
1617.270833	0.096987	0.446070	5175.408203
1617.271720	0.097042	0.446070	5261.484863
1617.272668	0.097123	0.446070	5353.557129
1617.273566	0.097123	0.446070	5440.773437
1617.274466	0.097053	0.446070	5528.121094
1617.275399	0.097119	0.446070	5618.733398
1617.276300	0.097086	0.446070	5706.208008
1617.277199	0.097035	0.446070	5793.442383
1617.278087	0.097086	0.446070	5879.654785
1618.281949	1.410319	0.414161	636.053711
1618.282840	1.916330	0.414161	2343.504150
1618.283791	1.877615	0.414161	4129.115723
1618.284727	0.962699	0.414161	5030.202148
1618.285622	0.101404	0.414161	5120.958496
1618.286561	0.097123	0.414161	5212.156738
1618.287467	0.097075	0.414161	5300.106934
1618.288358	0.097079	0.414161	5386.604004
1618.289276	0.097137	0.414161	5475.776367
1618.290200	0.097020	0.414161	5565.422852
1618.291095	0.097035	0.414161	5652.269043
1618.291985	0.097094	0.414161	5738.682129
1618.292916	0.097134	0.414161	5829.113770
1618.293824	0.097115	0.414161	5917.294434
1619.282447	1.472102	0.444446	749.299927
1619.283364	1.917220	0.444446	2507.391113
1619.284267	1.876113	0.444446	4201.521484
1619.285167	0.955521	0.444446	5061.490723
1619.286106	0.099913	0.444446	5155.309570
1619.287002	0.096969	0.444446	5242.193848
1619.287894	0.097086	0.444446	5328.794922
1619.288815	0.097112	0.444446	5418.234863
1619.289734	0.097024	0.444446	5507.399902
1619.290638	0.097042	0.444446	5595.125977
1619.291523	0.097079	0.444446	5681.040527
1619.292462	0.097130	0.444446	5772.245605
1619.293369	0.097028	0.444446	5860.249512
1619.294258	0.097137	0.444446	5946.604492
1620.294215	1.389485	0.418262	601.646973
1620.295158	1.916067	0.418262	2408.498047
1620.296078	1.877787	0.418262	4136.062012
1620.296987	1.009288	0.418262	5053.505371
1620.297873	0.102880	0.418262	5144.656738
1620.298840	0.097086	0.418262	5238.539062
1620.299747	0.097072	0.418262	5326.583008
1620.300640	0.097064	0.418262	5413.261230
1620.301558	0.097050	0.418262	5502.352539
1620.302470	0.097090	0.418262	5590.898437
1620.303375	0.097028	0.418262	5678.708496
1620.304278	0.097042	0.418262	5766.337402
1620.305212	0.097009	0.418262	5856.943848
1620.306119	0.096998	0.418262	5944.921387
1621.297999	1.418818	0.451149	629.955322
1621.298964	1.917283	0.451149	2480.133301
1621.299887	1.875740	0.451149	4211.440918
1621.300782	0.966687	0.451149	5076.625977
1621.301725	0.101360	0.451149	5172.208496
1621.302620	0.097002	0.451149	5259.025391
1621.303526	0.097042	0.451149	5346.945801
1621.304419	0.096991	0.451149	5433.558594
1621.305355	0.097068	0.451149	5524.414062
1621.306265	0.097075	0.451149	5612.752441
1621.307161	0.097072	0.451149	5699.728516
1621.308067	0.097072	0.451149	5787.675293
1621.308999	0.097068	0.451149	5878.142578
1621.309910	0.097020	0.451149	5966.527832
1622.306039	1.415394	0.424285	683.635437
1622.306960	1.916638	0.424285	2448.859131
1622.307879	1.875886	0.424285	4172.798828
1622.308787	0.936086	0.424285	5022.765137
1622.309742	0.099415	0.424285	5117.706543
1622.310647	0.097039	0.424285	5205.526367
1622.311534	0.097024	0.424285	5291.586426
1622.312470	0.097006	0.424285	5382.383789
1622.313392	0.097112	0.424285	5471.920898
1622.314311	0.097024	0.424285	5561.085937
1622.315199	0.096987	0.424285	5647.210449
1622.316148	0.097079	0.424285	5739.338379
1622.317050	0.097068	0.424285	5826.893555
1622.317938	0.097061	0.424285	5913.083496
1623.313243	1.402006	0.457695	628.098511
1623.314137	1.916938	0.457695	2341.841309
1623.315082	1.879050	0.457695	4117.543945
1623.316025	0.953752	0.457695	5016.932617
1623.316936	0.100811	0.457695	5108.770996
1623.317826	0.097035	0.457695	5195.131836
1623.318770	0.097097	0.457695	5286.791504
1623.319678	0.097042	0.457695	5374.905762
1623.320577	0.097090	0.457695	5462.189453
1623.321467	0.097119	0.457695	5548.625488
1623.322408	0.097115	0.457695	5640.011230
1623.323303	0.097104	0.457695	5726.919922
1623.324190	0.097097	0.457695	5813.044922
1623.325113	0.097152	0.457695	5902.716309
1624.318561	1.414233	0.427922	633.576538
1624.319481	1.916803	0.427922	2397.035156
1624.320379	1.879395	0.427922	4084.731445
1624.321337	0.989081	0.427922	5032.270996
1624.322245	0.101235	0.427922	5124.192871
1624.323150	0.097050	0.427922	5212.022949
1624.324041	0.097086	0.427922	5298.526855
1624.324987	0.097075	0.427922	5390.359863
1624.325889	0.097013	0.427922	5477.865723
1624.326791	0.096998	0.427922	5565.358398
1624.327677	0.096984	0.427922	5651.286133
1624.328623	0.097126	0.427922	5743.167969
1624.329528	0.097028	0.427922	5830.978027
1624.330417	0.097009	0.427922	5917.219238
1625.328129	1.473783	0.456725	722.153625
1625.329044	1.917078	0.456725	2476.279785
1625.329948	1.877117	0.456725	4173.193359
1625.330846	0.988770	0.456725	5061.108398
1625.331799	0.100386	0.456725	5156.775879
1625.332696	0.096918	0.456725	5243.710937
1625.333595	0.097039	0.456725	5330.948730
1625.334528	0.097086	0.456725	5421.530273
1625.335433	0.097134	0.456725	5509.436523
1625.336336	0.097035	0.456725	5597.059082
1625.337229	0.097075	0.456725	5683.747070
1625.338177	0.097141	0.456725	5775.836914
1625.339082	0.097042	0.456725	5863.660156
1625.339986	0.097042	0.456725	5951.386230
1626.331143	1.432789	0.428486	713.529114
1626.332065	1.917063	0.428486	2481.061035
1626.332965	1.876659	0.428486	4170.054199
1626.333862	0.991589	0.428486	5059.509766
1626.334797	0.100345	0.428486	5153.333008
1626.335708	0.097020	0.428486	5241.718262
1626.336607	0.097083	0.428486	5328.995605
1626.337494	0.097115	0.428486	5415.137207
1626.338447	0.097185	0.428486	5507.754395
1626.339352	0.097104	0.428486	5595.633789
1626.340246	0.097083	0.428486	5682.425781
1626.341184	0.097083	0.428486	5773.489258
1626.342085	0.097083	0.428486	5860.960449
1626.342979	0.097061	0.428486	5947.732422
1627.342307	1.425747	0.452926	645.863464
1627.343212	1.916664	0.452926	2380.444336
1627.344111	1.879512	0.452926	4070.125488
1627.345045	1.043804	0.452926	5045.038086
1627.345974	0.101594	0.452926	5139.418945
1627.346876	0.096899	0.452926	5226.822266
1627.347769	0.097086	0.452926	5313.520020
1627.348699	0.097108	0.452926	5403.830566
1627.349618	0.097094	0.452926	5493.059570
1627.350530	0.097134	0.452926	5581.645508
1627.351419	0.097104	0.452926	5667.971191
1627.352374	0.097134	0.452926	5760.733887
1627.353265	0.097115	0.452926	5847.263672
1627.354157	0.097079	0.452926	5933.857910
1628.343625	1.392587	0.432861	612.738159
1628.344605	1.917034	0.432861	2491.431152
1628.345516	1.875659	0.432861	4200.156738
1628.346429	0.937471	0.432861	5056.067383
1628.347323	0.100931	0.432861	5146.300293
1628.348269	0.097119	0.432861	5238.174805
1628.349178	0.096962	0.432861	5326.312988
1628.350075	0.097017	0.432861	5413.336914
1628.350999	0.097108	0.432861	5503.064941
1628.351899	0.097057	0.432861	5590.416016
1628.352794	0.097068	0.432861	5677.291992
1628.353685	0.097094	0.432861	5763.802246
1628.354620	0.097141	0.432861	5854.629395
1628.355516	0.097094	0.432861	5941.625000
1629.356117	1.407971	0.454207	626.547180
1629.357010	1.916232	0.454207	2337.741943
1629.357970	1.877732	0.454207	4140.364258
1629.358895	0.977076	0.454207	5044.160156
1629.359783	0.101704	0.454207	5134.473633
1629.360718	0.096984	0.454207	5225.153320
1629.361628	0.097119	0.454207	5313.531738
1629.362540	0.097083	0.454207	5402.070801
1629.363438	0.097097	0.454207	5489.264160
1629.364376	0.097068	0.454207	5580.313965
1629.365282	0.097115	0.454207	5668.300781
1629.366180	0.097035	0.454207	5755.437988
1629.367064	0.097061	0.454207	5841.239746
1629.368018	0.097156	0.454207	5933.926270
1630.356314	1.407015	0.431237	620.493774
1630.357247	1.915979	0.431237	2408.102051
1630.358164	1.878303	0.431237	4130.505859
1630.359089	0.986455	0.431237	5042.976562
1630.359982	0.101979	0.431237	5134.043457
1630.360918	0.097156	0.431237	5224.981445
1630.361824	0.097123	0.431237	5312.974609
1630.362725	0.097083	0.431237	5400.445801
1630.363611	0.097101	0.431237	5486.477051
1630.364550	0.097112	0.431237	5577.665039
1630.365454	0.097101	0.431237	5665.444336
1630.366350	0.097068	0.431237	5752.416992
1630.367272	0.097119	0.431237	5841.960937
1630.368158	0.097112	0.431237	5928.001953
1631.369550	1.402808	0.447745	617.235352
1631.370488	1.916016	0.447745	2414.458008
1631.371408	1.877952	0.447745	4142.173340
1631.372330	0.998738	0.447745	5063.009766
1631.373216	0.102272	0.447745	5153.622559
1631.374143	0.096973	0.447745	5243.516113
1631.375053	0.097013	0.447745	5331.797852
1631.375954	0.097024	0.447745	5419.216309
1631.376843	0.096951	0.447745	5505.405273
1631.377796	0.097090	0.447745	5597.932129
1631.378699	0.096969	0.447745	5685.495117
1631.379593	0.097072	0.447745	5772.276855
1631.380518	0.097178	0.447745	5862.166016
1631.381420	0.097068	0.447745	5949.721191
1632.370119	1.403591	0.424462	613.369385
1632.371099	1.917554	0.424462	2492.571777
1632.372018	1.875461	0.424462	4216.121094
1632.372926	0.938170	0.424462	5067.979492
1632.373857	0.100946	0.424462	5161.960449
1632.374759	0.097035	0.424462	5249.485840
1632.375658	0.097057	0.424462	5336.739746
1632.376541	0.097068	0.424462	5422.450684
1632.377483	0.097141	0.424462	5513.957520
1632.378383	0.097104	0.424462	5601.351562
1632.379287	0.097020	0.424462	5689.058105
1632.380178	0.097039	0.424462	5775.519531
1632.381130	0.097108	0.424462	5867.966309
1632.382031	0.097024	0.424462	5955.384766
1633.382983	1.394213	0.450988	606.482544
1633.383958	1.916118	0.450988	2474.697754
1633.384869	1.876362	0.450988	4184.063477
1633.385777	0.962439	0.450988	5057.958008
1633.386668	0.101561	0.450988	5148.449219
1633.387626	0.097035	0.450988	5241.408691
1633.388534	0.097119	0.450988	5329.592773
1633.389437	0.097013	0.450988	5417.195312
1633.390359	0.097126	0.450988	5506.746094
1633.391247	0.097119	0.450988	5592.987793
1633.392201	0.097053	0.450988	5685.576660
1633.393119	0.097115	0.450988	5774.728516
1633.394013	0.097134	0.450988	5861.565918
1633.394933	0.097104	0.450988	5950.901855
1634.384005	1.428450	0.423290	712.796448
1634.384930	1.917089	0.423290	2486.103516
1634.385844	1.875282	0.423290	4200.111328
1634.386741	0.951746	0.423290	5053.827148
1634.387682	0.099891	0.423290	5147.824707
1634.388589	0.097031	0.423290	5235.832031
1634.389486	0.097119	0.423290	5322.947754
1634.390425	0.097148	0.423290	5414.169922
1634.391328	0.097130	0.423290	5501.878418
1634.392227	0.097134	0.423290	5589.201660
1634.393115	0.097130	0.423290	5675.453125
1634.394059	0.097104	0.423290	5767.119629
1634.394969	0.097134	0.423290	5855.511230
1634.395869	0.097072	0.423290	5942.875488
1635.396428	1.406869	0.449586	623.242920
1635.397402	1.917290	0.449586	2490.683594
1635.398316	1.875678	0.449586	4205.052734
1635.399224	0.944901	0.449586	5063.022949
1635.400159	0.101063	0.449586	5157.517090
1635.401067	0.097061	0.449586	5245.647949
1635.401970	0.097053	0.449586	5333.287109
1635.402856	0.097042	0.449586	5419.266602
1635.403816	0.097075	0.449586	5512.458984
1635.404715	0.097148	0.449586	5599.795410
1635.405615	0.097137	0.449586	5687.219238
1635.406503	0.097141	0.449586	5773.480469
1635.407440	0.097130	0.449586	5864.491211
1635.408344	0.097075	0.449586	5952.247070
1636.398932	1.404554	0.422568	625.026672
1636.399826	1.915986	0.422568	2337.918457
1636.400791	1.877849	0.422568	4150.042969
1636.401717	0.980101	0.422568	5057.616699
1636.402607	0.101799	0.422568	5148.218262
1636.403544	0.097002	0.422568	5239.108887
1636.404453	0.097072	0.422568	5327.346680
1636.405359	0.097024	0.422568	5415.250488
1636.406247	0.097061	0.422568	5501.440430
1636.407206	0.097104	0.422568	5594.563477
1636.408118	0.097039	0.422568	5683.062500
1636.409016	0.097167	0.422568	5770.318359
1636.409934	0.097097	0.422568	5859.453613
1636.410845	0.097101	0.422568	5947.912598
1637.409481	1.394117	0.451028	605.046997
1637.410438	1.915510	0.451028	2438.190430
1637.411362	1.876988	0.451028	4172.527832
1637.412288	0.952588	0.451028	5054.624023
1637.413181	0.101393	0.451028	5145.167969
1637.414127	0.097141	0.451028	5237.063477
1637.415032	0.097057	0.451028	5324.899902
1637.415929	0.097137	0.451028	5412.032227
1637.416817	0.097167	0.451028	5498.316406
1637.417758	0.097156	0.451028	5589.739746
1637.418662	0.097042	0.451028	5677.465820
1637.419550	0.097075	0.451028	5763.668457
1637.420497	0.097097	0.451028	5855.619629
1637.421412	0.097119	0.451028	5944.483398
1638.413909	1.413878	0.420526	627.761902
1638.414828	1.916814	0.420526	2389.313721
1638.415732	1.879644	0.420526	4088.511475
1638.416689	0.990483	0.420526	5036.404297
1638.417589	0.101796	0.420526	5128.020508
1638.418497	0.096936	0.420526	5216.038574
1638.419389	0.097050	0.420526	5302.606934
1638.420327	0.097115	0.420526	5393.701172
1638.421227	0.097094	0.420526	5481.085449
1638.422118	0.097137	0.420526	5567.634766
1638.423025	0.097174	0.420526	5655.771484
1638.423953	0.097189	0.420526	5745.962402
1638.424863	0.097097	0.420526	5834.320801
1638.425762	0.097137	0.420526	5921.647461
1639.422673	1.407689	0.445655	627.829407
1639.423650	1.917400	0.445655	2501.129150
1639.424570	1.875678	0.445655	4226.752441
1639.425475	0.935200	0.445655	5073.108398
1639.426404	0.100800	0.445655	5166.750977
1639.427312	0.097083	0.445655	5254.901855
1639.428213	0.096998	0.445655	5342.297363
1639.429101	0.097068	0.445655	5428.493652
1639.430035	0.097152	0.445655	5519.233887
1639.430942	0.097079	0.445655	5607.284180
1639.431845	0.097112	0.445655	5694.976074
1639.432735	0.097075	0.445655	5781.373047
1639.433672	0.097167	0.445655	5872.418457
1639.434578	0.097079	0.445655	5960.372070
1640.429832	1.453678	0.418149	728.292664
1640.430748	1.917217	0.418149	2484.463135
1640.431651	1.876392	0.418149	4178.844727
1640.432550	0.981335	0.418149	5061.065430
1640.433484	0.100364	0.418149	5154.805176
1640.434396	0.096976	0.418149	5243.247559
1640.435296	0.096969	0.418149	5330.519531
1640.436219	0.097090	0.418149	5420.133301
1640.437137	0.097134	0.418149	5509.302246
1640.438046	0.096973	0.418149	5597.450195
1640.438939	0.097053	0.418149	5684.118652
1640.439883	0.097079	0.418149	5775.761230
1640.440789	0.097123	0.418149	5863.754395
1640.441684	0.097050	0.418149	5950.613770
1641.434716	1.421254	0.444402	645.249146
1641.435617	1.917023	0.444402	2372.486816
1641.436532	1.879383	0.444402	4092.122559
1641.437486	0.981171	0.444402	5028.159180
1641.438387	0.101583	0.444402	5119.685547
1641.439277	0.096995	0.444402	5206.010742
1641.440230	0.097094	0.444402	5298.541016
1641.441137	0.097057	0.444402	5386.571777
1641.442027	0.097134	0.444402	5473.020996
1641.442911	0.097035	0.444402	5558.799805
1641.443853	0.097189	0.444402	5650.351562
1641.444756	0.097006	0.444402	5737.947754
1641.445649	0.097064	0.444402	5824.625977
1641.446564	0.097079	0.444402	5913.453125
1642.445511	1.388599	0.418282	605.428955
1642.446481	1.917188	0.418282	2465.101074
1642.447387	1.877139	0.418282	4165.788574
1642.448301	0.978853	0.418282	5060.459961
1642.449186	0.101873	0.418282	5150.617187
1642.450134	0.097061	0.418282	5242.630371
1642.451045	0.097130	0.418282	5331.115723
1642.451933	0.097097	0.418282	5417.337891
1642.452868	0.097134	0.418282	5508.158203
1642.453781	0.097042	0.418282	5596.757812
1642.454682	0.097064	0.418282	5684.212891
1642.455569	0.097097	0.418282	5770.337891
1642.456511	0.097163	0.418282	5861.865723
1642.457411	0.097119	0.418282	5949.272949
1643.447377	1.414314	0.446392	627.955383
1643.448281	1.917147	0.446392	2361.056396
1643.449200	1.879709	0.446392	4088.509277
1643.450149	0.999185	0.446392	5036.735352
1643.451060	0.101682	0.446392	5129.367676
1643.451955	0.097020	0.446392	5216.200684
1643.452891	0.097148	0.446392	5307.131836
1643.453796	0.097094	0.446392	5395.001465
1643.454697	0.097072	0.446392	5482.462891
1643.455580	0.097050	0.446392	5568.157715
1643.456541	0.097178	0.446392	5661.545410
1643.457439	0.097083	0.446392	5748.725586
1643.458336	0.097046	0.446392	5835.775879
1643.459251	0.097061	0.446392	5924.586426
1644.461912	1.412508	0.417501	632.803833
1644.462807	1.916763	0.417501	2348.306641
1644.463764	1.878409	0.417501	4145.944336
1644.464668	1.003323	0.417501	5052.948242
1644.465581	0.101631	0.417501	5145.737305
1644.466479	0.096947	0.417501	5232.795898
1644.467434	0.097057	0.417501	5325.485352
1644.468331	0.097094	0.417501	5412.578125
1644.469226	0.097046	0.417501	5499.434082
1644.470176	0.097170	0.417501	5591.746094
1644.471078	0.097013	0.417501	5679.251953
1644.471967	0.097046	0.417501	5765.525879
1644.472877	0.097057	0.417501	5853.847656
1644.473802	0.097148	0.417501	5943.709961
1645.459323	1.455168	0.449772	713.032471
1645.460244	1.917305	0.449772	2478.870117
1645.461150	1.876791	0.449772	4179.242676
1645.462051	0.978798	0.449772	5061.139160
1645.463009	0.100042	0.449772	5156.979004
1645.463915	0.097035	0.449772	5244.892578
1645.464806	0.097086	0.449772	5331.396484
1645.465731	0.097159	0.449772	5421.269043
1645.466648	0.097035	0.449772	5510.250000
1645.467560	0.097028	0.449772	5598.739258
1645.468461	0.097075	0.449772	5686.204102
1645.469403	0.097061	0.449772	5777.635254
1645.470308	0.097064	0.449772	5865.478516
1645.471205	0.097108	0.449772	5952.584473
1646.477408	1.424634	0.417630	643.934509
1646.478304	1.917213	0.417630	2361.757324
1646.479257	1.878091	0.417630	4151.577637
1646.480171	0.986916	0.417630	5053.619141
1646.481073	0.101759	0.417630	5145.405762
1646.481961	0.097009	0.417630	5231.549805
1646.482892	0.097163	0.417630	5322.008789
1646.483795	0.097046	0.417630	5409.641113
1646.484690	0.097028	0.417630	5496.480957
1646.485599	0.097068	0.417630	5584.715820
1646.486510	0.097189	0.417630	5673.254883
1646.487415	0.097064	0.417630	5761.098145
1646.488302	0.097035	0.417630	5847.167969
1646.489230	0.097042	0.417630	5937.223145
1647.471575	1.413197	0.452040	634.525391
1647.472465	1.915818	0.452040	2339.603271
1647.473439	1.877172	0.452040	4167.968262
1647.474348	0.970481	0.452040	5050.135742
1647.475238	0.101616	0.452040	5140.574219
1647.476187	0.097053	0.452040	5232.677734
1647.477102	0.097039	0.452040	5321.468262
1647.478004	0.097039	0.452040	5408.997070
1647.478897	0.096998	0.452040	5495.616699
1647.479848	0.097094	0.452040	5587.952637
1647.480747	0.097101	0.452040	5675.246094
1647.481668	0.097086	0.452040	5764.662598
1647.482558	0.097009	0.452040	5851.000977
1647.483502	0.097112	0.452040	5942.674316
1648.492530	1.456293	0.422145	684.457581
1648.493446	1.917078	0.422145	2440.500732
1648.494358	1.877856	0.422145	4153.105957
1648.495253	1.007970	0.422145	5055.239258
1648.496205	0.100602	0.422145	5151.012207
1648.497113	0.096973	0.422145	5239.063477
1648.498003	0.097064	0.422145	5325.450684
1648.498950	0.097090	0.422145	5417.394531
1648.499855	0.097148	0.422145	5505.313965
1648.500758	0.097090	0.422145	5592.986328
1648.501644	0.097017	0.422145	5678.942871
1648.502575	0.097101	0.422145	5769.343750
1648.503488	0.097031	0.422145	5857.933105
1648.504389	0.097017	0.422145	5945.345215
1649.483986	1.394729	0.461816	617.864929
1649.484879	1.916353	0.461816	2329.167725
1649.485826	1.878314	0.461816	4107.931152
1649.486753	1.000261	0.461816	5035.173340
1649.487652	0.102026	0.461816	5126.895020
1649.488545	0.096929	0.461816	5213.452148
1649.489484	0.097086	0.461816	5304.616211
1649.490390	0.097028	0.461816	5392.523437
1649.491292	0.097053	0.461816	5480.065430
1649.492237	0.097072	0.461816	5571.797852
1649.493137	0.097112	0.461816	5659.198242
1649.494041	0.097064	0.461816	5746.944336
1649.494927	0.097020	0.461816	5832.904297
1649.495855	0.097072	0.461816	5922.986816
1650.506073	1.412593	0.426339	627.191162
1650.506994	1.916880	0.426339	2392.637695
1650.507901	1.878955	0.426339	4096.850098
1650.508846	0.996361	0.426339	5038.411133
1650.509749	0.101726	0.426339	5130.270020
1650.510655	0.097013	0.426339	5218.163574
1650.511542	0.097039	0.426339	5304.236816
1650.512496	0.096976	0.426339	5396.752441
1650.513405	0.097013	0.426339	5484.937012
1650.514292	0.097079	0.426339	5571.045898
1650.515214	0.097112	0.426339	5660.583008
1650.516138	0.097090	0.426339	5750.293945
1650.517054	0.097002	0.426339	5839.147949
1650.517951	0.097072	0.426339	5926.221191
1651.497417	1.394549	0.462880	606.629028
1651.498315	1.915517	0.462880	2326.763672
1651.499283	1.877377	0.462880	4144.064453
1651.500213	0.972645	0.462880	5048.624512
1651.501107	0.101459	0.462880	5139.328613
1651.502032	0.096991	0.462880	5229.045410
1651.502938	0.097104	0.462880	5317.021973
1651.503839	0.097057	0.462880	5404.470215
1651.504728	0.097064	0.462880	5490.760254
1651.505670	0.097148	0.462880	5582.273926
1651.506571	0.097050	0.462880	5669.715820
1651.507463	0.097042	0.462880	5756.277344
1651.508370	0.097053	0.462880	5844.304687
1651.509306	0.097072	0.462880	5935.163574
1652.519373	1.402841	0.433973	617.249878
1652.520274	1.917132	0.433973	2344.586426
1652.521168	1.881379	0.433973	4026.539551
1652.522142	1.008596	0.433973	5008.912109
1652.523042	0.102528	0.433973	5101.187500
1652.523938	0.096965	0.433973	5188.068359
1652.524822	0.097061	0.433973	5273.870117
1652.525763	0.097203	0.433973	5365.338379
1652.526676	0.097053	0.433973	5453.947754
1652.527577	0.097053	0.433973	5541.392578
1652.528506	0.097115	0.433973	5631.612793
1652.529421	0.097225	0.433973	5720.574219
1652.530322	0.097094	0.433973	5808.055664
1652.531212	0.097020	0.433973	5894.403809
1653.511121	1.393795	0.471025	616.057434
1653.512014	1.916239	0.471025	2327.258789
1653.512963	1.878054	0.471025	4109.532227
1653.513881	1.010273	0.471025	5036.963379
1653.514769	0.102825	0.471025	5128.271484
1653.515700	0.097046	0.471025	5218.621094
1653.516619	0.097013	0.471025	5307.775879
1653.517520	0.097050	0.471025	5395.217773
1653.518407	0.097020	0.471025	5481.274902
1653.519349	0.097148	0.471025	5572.788574
1653.520247	0.097075	0.471025	5659.961914
1653.521138	0.097072	0.471025	5746.452637
1653.522066	0.097097	0.471025	5836.558594
1653.522975	0.097039	0.471025	5924.766602
1654.531836	1.469268	0.444914	718.471863
1654.532759	1.917528	0.444914	2488.350342
1654.533672	1.876615	0.444914	4201.699707
1654.534573	0.959154	0.444914	5065.897461
1654.535526	0.099877	0.444914	5161.080078
1654.536435	0.097050	0.444914	5249.298340
1654.537328	0.097123	0.444914	5336.028809
1654.538266	0.097167	0.444914	5427.171387
1654.539158	0.097145	0.444914	5513.824707
1654.540060	0.097192	0.444914	5601.492187
1654.540952	0.097145	0.444914	5688.145508
1654.541905	0.097214	0.444914	5780.791016
1654.542814	0.097086	0.444914	5869.042480
1654.543715	0.097104	0.444914	5956.533691
1655.526230	1.410450	0.471287	631.881775
1655.527130	1.916968	0.471287	2357.152832
1655.528072	1.879266	0.471287	4127.421875
1655.529011	0.970415	0.471287	5038.641602
1655.529916	0.101331	0.471287	5130.345703
1655.530821	0.096987	0.471287	5218.119141
1655.531754	0.097090	0.471287	5308.704102
1655.532661	0.097123	0.471287	5396.794434
1655.533560	0.097090	0.471287	5484.078125
1655.534445	0.097086	0.471287	5569.999512
1655.535387	0.097126	0.471287	5661.492676
1655.536295	0.097086	0.471287	5749.646973
1655.537192	0.097075	0.471287	5836.723633
1655.538118	0.097141	0.471287	5926.676270
1656.544078	1.395780	0.458106	609.955872
1656.545044	1.916850	0.458106	2461.633301
1656.545956	1.876717	0.458106	4173.199707
1656.546865	0.984606	0.458106	5068.206055
1656.547751	0.102023	0.458106	5158.598145
1656.548696	0.096976	0.458106	5250.240723
1656.549613	0.096984	0.458106	5339.174805
1656.550509	0.097035	0.458106	5426.118164
1656.551437	0.097035	0.458106	5516.166504
1656.552345	0.097072	0.458106	5604.307617
1656.553252	0.096954	0.458106	5692.245117
1656.554139	0.096683	0.458106	5778.003418
1656.555088	0.096650	0.458106	5869.724609
1656.555989	0.097042	0.458106	5957.159668
1657.541319	1.397007	0.468681	609.094971
1657.542292	1.917052	0.468681	2474.386719
1657.543199	1.876780	0.468681	4176.625977
1657.544101	0.989528	0.468681	5069.179687
1657.545040	0.102125	0.468681	5165.075195
1657.545935	0.097024	0.468681	5251.911621
1657.546835	0.097075	0.468681	5339.279297
1657.547726	0.097013	0.468681	5425.717773
1657.548651	0.097101	0.468681	5515.536133
1657.549565	0.097017	0.468681	5604.209473
1657.550465	0.097031	0.468681	5691.537598
1657.551352	0.097101	0.468681	5777.666016
1657.552304	0.097167	0.468681	5870.168945
1657.553203	0.097068	0.468681	5957.433105
1658.556380	1.397670	0.460241	620.565308
1658.557274	1.916594	0.460241	2334.000488
1658.558223	1.878098	0.460241	4116.315430
1658.559148	0.992344	0.460241	5034.233398
1658.560051	0.101744	0.460241	5126.108398
1658.560938	0.097046	0.460241	5212.187988
1658.561880	0.097050	0.460241	5303.608887
1658.562791	0.096987	0.460241	5391.964355
1658.563689	0.097064	0.460241	5479.127930
1658.564622	0.097200	0.460241	5569.815430
1658.565524	0.097119	0.460241	5657.416992
1658.566422	0.097053	0.460241	5744.570801
1658.567307	0.097075	0.460241	5830.482422
1658.568247	0.097203	0.460241	5921.853516
1659.557070	1.399724	0.467037	613.079163
1659.557965	1.915975	0.467037	2327.876953
1659.558925	1.877985	0.467037	4130.742187
1659.559842	1.003176	0.467037	5050.654785
1659.560734	0.102524	0.467037	5142.106445
1659.561672	0.097094	0.467037	5233.180176
1659.562587	0.097108	0.467037	5322.034180
1659.563481	0.097020	0.467037	5408.770508
1659.564372	0.097057	0.467037	5495.248047
1659.565312	0.097101	0.467037	5586.522949
1659.566221	0.097024	0.467037	5674.717773
1659.567113	0.097086	0.467037	5761.318848
1659.568022	0.097130	0.467037	5849.610352
1659.568944	0.097101	0.467037	5939.137207
1660.569300	1.412084	0.461961	629.789368
1660.570202	1.917081	0.461961	2358.996826
1660.571152	1.878446	0.461961	4143.520508
1660.572064	1.005432	0.461961	5060.474609
1660.572966	0.102448	0.461961	5152.882324
1660.573853	0.097020	0.461961	5238.939453
1660.574785	0.097152	0.461961	5329.485352
1660.575693	0.097064	0.461961	5417.619629
1660.576591	0.097083	0.461961	5504.799805
1660.577502	0.097039	0.461961	5593.202148
1660.578430	0.097163	0.461961	5683.369629
1660.579340	0.097134	0.461961	5771.761230
1660.580236	0.097072	0.461961	5858.737305
1660.581175	0.097130	0.461961	5949.942383
1661.571790	1.404954	0.465527	618.179565
1661.572694	1.916796	0.465527	2350.962891
1661.573587	1.881284	0.465527	4030.949707
1661.574563	0.998734	0.465527	5005.714355
1661.575460	0.102239	0.465527	5097.422363
1661.576362	0.097009	0.465527	5184.924805
1661.577254	0.096995	0.465527	5271.443848
1661.578191	0.097178	0.465527	5362.499512
1661.579086	0.097090	0.465527	5449.395020
1661.579982	0.097090	0.465527	5536.387695
1661.580914	0.097119	0.465527	5626.902832
1661.581818	0.097178	0.465527	5714.751465
1661.582719	0.097035	0.465527	5802.179687
1661.583605	0.097013	0.465527	5888.133301
1662.581732	1.432405	0.456249	647.446960
1662.582631	1.916935	0.456249	2370.771484
1662.583525	1.880489	0.456249	4051.929199
1662.584489	1.012412	0.456249	5027.894531
1662.585386	0.102297	0.456249	5119.655273
1662.586288	0.097046	0.456249	5207.190430
1662.587176	0.097108	0.456249	5293.422363
1662.588116	0.097086	0.456249	5384.683594
1662.589022	0.097050	0.456249	5472.610352
1662.589918	0.097108	0.456249	5559.619141
1662.590857	0.097119	0.456249	5650.813965
1662.591761	0.097130	0.456249	5738.619629
1662.592652	0.097083	0.456249	5825.120117
1662.593540	0.097072	0.456249	5911.319824
1663.586896	1.407730	0.461317	625.031921
1663.587867	1.917451	0.461317	2486.876953
1663.588784	1.876051	0.461317	4207.215820
1663.589687	0.959597	0.461317	5073.731934
1663.590612	0.101378	0.461317	5167.506836
1663.591526	0.097134	0.461317	5256.287109
1663.592441	0.096995	0.461317	5345.037109
1663.593339	0.097086	0.461317	5432.220703
1663.594266	0.097079	0.461317	5522.212891
1663.595174	0.097017	0.461317	5610.304199
1663.596081	0.097104	0.461317	5698.377930
1663.596970	0.097126	0.461317	5784.723145
1663.597915	0.097156	0.461317	5876.535156
1663.598824	0.097072	0.461317	5964.772949
1664.595161	1.421609	0.446279	642.567261
1664.596062	1.917290	0.446279	2370.045654
1664.596955	1.879592	0.446279	4048.521729
1664.597917	1.003110	0.446279	5013.513672
1664.598831	0.101920	0.446279	5106.668945
1664.599726	0.096980	0.446279	5193.465820
1664.600653	0.097137	0.446279	5283.512207
1664.601558	0.097104	0.446279	5371.391602
1664.602457	0.097053	0.446279	5458.642578
1664.603344	0.097068	0.446279	5544.741699
1664.604296	0.097137	0.446279	5637.216797
1664.605193	0.097097	0.446279	5724.312988
1664.606091	0.097035	0.446279	5811.450195
1664.606977	0.097141	0.446279	5897.517090
1665.601503	1.427238	0.451810	643.684143
1665.602408	1.916873	0.451810	2378.453857
1665.603305	1.879904	0.451810	4064.727539
1665.604275	0.987451	0.451810	5022.555176
1665.605178	0.101598	0.451810	5114.297852
1665.606077	0.096823	0.451810	5201.341309
1665.606979	0.096896	0.451810	5288.741211
1665.607918	0.097031	0.451810	5379.853516
1665.608826	0.096815	0.451810	5467.761719
1665.609723	0.096896	0.451810	5554.677246
1665.610649	0.097009	0.451810	5644.507812
1665.611553	0.096918	0.451810	5732.121582
1665.612450	0.096903	0.451810	5819.043457
1665.613338	0.096921	0.451810	5905.109863
1666.608469	1.408220	0.444724	630.882629
1666.609363	1.916711	0.444724	2344.422607
1666.610287	1.879834	0.444724	4081.389160
1666.611220	1.028467	0.444724	5040.948730
1666.612126	0.102561	0.444724	5133.869141
1666.613020	0.096903	0.444724	5220.500488
1666.613951	0.097039	0.444724	5310.843262
1666.614857	0.096947	0.444724	5398.677246
1666.615757	0.096899	0.444724	5485.886719
1666.616643	0.096925	0.444724	5571.762207
1666.617603	0.097002	0.444724	5664.884277
1666.618507	0.096947	0.444724	5752.524414
1666.619397	0.096991	0.444724	5838.846191
1666.620315	0.096936	0.444724	5927.833496
1667.615446	1.391836	0.451657	613.799622
1667.616349	1.916829	0.451657	2344.695801
1667.617276	1.879834	0.451657	4087.302002
1667.618212	1.006091	0.451657	5029.003418
1667.619116	0.101942	0.451657	5121.159180
1667.620007	0.096903	0.451657	5207.500000
1667.620958	0.097061	0.451657	5299.804687
1667.621866	0.096892	0.451657	5387.782715
1667.622763	0.096947	0.451657	5474.744141
1667.623649	0.096991	0.451657	5560.678223
1667.624585	0.097002	0.451657	5651.472168
1667.625492	0.096899	0.451657	5739.359863
1667.626383	0.097006	0.451657	5825.791992
1667.627302	0.097002	0.451657	5914.937012
1668.621906	1.412648	0.440072	630.040894
1668.622805	1.916547	0.440072	2353.016113
1668.623759	1.877915	0.440072	4144.546875
1668.624683	0.978168	0.440072	5048.374023
1668.625588	0.101184	0.440072	5139.945801
1668.626478	0.096918	0.440072	5226.202637
1668.627432	0.096998	0.440072	5318.738770
1668.628335	0.096881	0.440072	5406.222656
1668.629224	0.096951	0.440072	5492.411621
1668.630160	0.096984	0.440072	5583.188477
1668.631061	0.097017	0.440072	5670.600586
1668.631958	0.096885	0.440072	5757.506348
1668.632849	0.096951	0.440072	5843.889648
1668.633789	0.096947	0.440072	5935.020020
1669.629129	1.397571	0.440655	609.340881
1669.630072	1.915774	0.440655	2415.915527
1669.630989	1.877816	0.440655	4137.873047
1669.631899	1.012196	0.440655	5058.971191
1669.632788	0.102715	0.440655	5150.284668
1669.633749	0.096932	0.440655	5243.436523
1669.634653	0.096976	0.440655	5331.103027
1669.635554	0.096914	0.440655	5418.422363
1669.636443	0.097024	0.440655	5504.676758
1669.637390	0.097061	0.440655	5596.593262
1669.638302	0.096925	0.440655	5684.988770
1669.639191	0.096947	0.440655	5771.174805
1669.640115	0.096995	0.440655	5860.797852
1669.641021	0.097050	0.440655	5948.724609
1670.635738	1.411252	0.436011	629.418640
1670.636632	1.916265	0.436011	2342.559326
1670.637604	1.877120	0.436011	4167.120117
1670.638520	0.972612	0.436011	5058.033203
1670.639409	0.101433	0.436011	5148.207031
1670.640341	0.096947	0.436011	5238.561523
1670.641262	0.096976	0.436011	5327.876953
1670.642170	0.096940	0.436011	5415.898437
1670.643057	0.096943	0.436011	5501.887207
1670.643992	0.097017	0.436011	5592.597656
1670.644900	0.096951	0.436011	5680.628906
1670.645802	0.096980	0.436011	5768.104980
1670.646692	0.097031	0.436011	5854.462891
1670.647636	0.097009	0.436011	5946.039551
1671.642699	1.396663	0.440003	613.134888
1671.643638	1.917294	0.440003	2413.473633
1671.644555	1.877809	0.440003	4135.424316
1671.645466	1.006293	0.440003	5052.157227
1671.646370	0.102708	0.440003	5145.004883
1671.647309	0.096980	0.440003	5236.068848
1671.648221	0.096987	0.440003	5324.521484
1671.649114	0.096987	0.440003	5411.131348
1671.650056	0.096980	0.440003	5502.486328
1671.650966	0.097057	0.440003	5590.808105
1671.651865	0.097053	0.440003	5678.059082
1671.652749	0.097031	0.440003	5763.834473
1671.653680	0.096984	0.440003	5854.126465
1671.654588	0.096991	0.440003	5942.194336
1672.649160	1.395048	0.429816	608.240723
1672.650138	1.916777	0.429816	2482.849121
1672.651049	1.875927	0.429816	4191.818359
1672.651955	0.956832	0.429816	5058.708496
1672.652843	0.101309	0.429816	5148.670410
1672.653800	0.096914	0.429816	5241.416992
1672.654709	0.096841	0.429816	5329.445312
1672.655604	0.096918	0.429816	5416.186523
1672.656534	0.096980	0.429816	5506.377930
1672.657429	0.096969	0.429816	5593.165039
1672.658326	0.096881	0.429816	5680.067383
1672.659239	0.096925	0.429816	5768.560059
1672.660129	0.096947	0.429816	5854.842773
1672.661050	0.096954	0.429816	5944.137695
1673.654863	1.390840	0.438468	609.187866
1673.655758	1.916774	0.438468	2324.700439
1673.656707	1.878944	0.438468	4107.818359
1673.657622	1.025870	0.438468	5046.489746
1673.658515	0.103019	0.438468	5138.485352
1673.659400	0.096844	0.438468	5224.192871
1673.660345	0.096973	0.438468	5315.832031
1673.661250	0.096958	0.438468	5403.579102
1673.662149	0.096995	0.438468	5490.777344
1673.663089	0.097057	0.438468	5582.010742
1673.663995	0.096940	0.438468	5669.837891
1673.664896	0.096918	0.438468	5757.160645
1673.665783	0.097042	0.438468	5843.237305
1673.666721	0.097108	0.438468	5934.324707
1674.663534	1.456846	0.429433	681.803772
1674.664461	1.917001	0.429433	2458.863281
1674.665369	1.877164	0.429433	4163.328125
1674.666319	0.929257	0.429433	5046.122070
1674.667229	0.099950	0.429433	5137.076660
1674.668133	0.096874	0.429433	5224.650391
1674.669021	0.096998	0.429433	5310.784668
1674.669976	0.097046	0.429433	5403.463379
1674.670880	0.096940	0.429433	5491.096680
1674.671774	0.096940	0.429433	5577.760742
1674.672661	0.097031	0.429433	5663.827637
1674.673597	0.097020	0.429433	5754.638672
1674.674504	0.096973	0.429433	5842.592773
1674.675403	0.096929	0.429433	5929.731445
1675.668556	1.396820	0.436438	609.013550
1675.669491	1.915898	0.436438	2400.378418
1675.670405	1.878516	0.436438	4117.341797
1675.671321	1.022285	0.436438	5053.754883
1675.672213	0.102858	0.436438	5145.503906
1675.673172	0.096995	0.436438	5238.521973
1675.674073	0.097006	0.436438	5325.923828
1675.674970	0.096980	0.436438	5412.915039
1675.675856	0.096951	0.436438	5498.813477
1675.676793	0.097017	0.436438	5589.718262
1675.677706	0.096947	0.436438	5678.230957
1675.678600	0.097013	0.436438	5764.960449
1675.679528	0.096984	0.436438	5854.961426
1675.680432	0.097024	0.436438	5942.670898
1676.677121	1.455421	0.426460	717.522583
1676.678020	1.917246	0.426460	2441.126709
1676.678940	1.876970	0.426460	4167.939453
1676.679847	0.978505	0.426460	5055.443359
1676.680797	0.099829	0.426460	5150.281250
1676.681694	0.096848	0.426460	5237.153809
1676.682582	0.096973	0.426460	5323.265625
1676.683504	0.096954	0.426460	5412.657715
1676.684419	0.096907	0.426460	5501.327148
1676.685320	0.096914	0.426460	5588.646484
1676.686209	0.096980	0.426460	5674.861816
1676.687137	0.096951	0.426460	5764.832031
1676.688037	0.096907	0.426460	5852.047852
1676.688929	0.096932	0.426460	5938.511719
1677.680214	1.417141	0.438629	632.044922
1677.681114	1.916737	0.438629	2357.108398
1677.682009	1.880870	0.438629	4040.487305
1677.682966	1.023658	0.438629	5020.128418
1677.683876	0.102056	0.438629	5112.999023
1677.684779	0.096918	0.438629	5200.515625
1677.685666	0.096929	0.438629	5286.491211
1677.686610	0.096932	0.438629	5377.995605
1677.687513	0.096907	0.438629	5465.502441
1677.688406	0.096932	0.438629	5552.062988
1677.689326	0.097042	0.438629	5641.341797
1677.690235	0.096980	0.438629	5729.496582
1677.691135	0.096987	0.438629	5816.785156
1677.692022	0.096888	0.438629	5902.725098
1678.691916	1.396996	0.426041	613.281189
1678.692891	1.917356	0.426041	2482.703125
1678.693807	1.875974	0.426041	4201.095215
1678.694717	0.941312	0.426041	5057.689453
1678.695603	0.101115	0.426041	5147.276855
1678.696546	0.096969	0.426041	5238.718750
1678.697456	0.096998	0.426041	5326.987305
1678.698353	0.096984	0.426041	5413.981445
1678.699285	0.097039	0.426041	5504.421387
1678.700185	0.097068	0.426041	5591.782227
1678.701085	0.097002	0.426041	5679.083984
1678.701974	0.097020	0.426041	5765.334961
1678.702920	0.097079	0.426041	5857.171387
1678.703822	0.096987	0.426041	5944.653809
1679.692371	1.404404	0.436031	623.555481
1679.693269	1.916525	0.436031	2344.594727
1679.694240	1.877069	0.436031	4167.228516
1679.695167	0.948684	0.436031	5046.658691
1679.696051	0.101309	0.436031	5136.215332
1679.696997	0.097006	0.436031	5227.982422
1679.697903	0.097101	0.436031	5315.955566
1679.698814	0.097046	0.436031	5404.364258
1679.699710	0.096969	0.436031	5491.248535
1679.700674	0.096973	0.436031	5584.729980
1679.701578	0.097061	0.436031	5672.472656
1679.702470	0.097028	0.436031	5759.021484
1679.703395	0.097009	0.436031	5848.754883
1679.704310	0.096984	0.436031	5937.495117
1680.706133	1.415522	0.430855	624.245422
1680.707060	1.916990	0.430855	2401.294922
1680.707961	1.879252	0.430855	4094.500488
1680.708899	1.020348	0.430855	5051.586914
1680.709817	0.101301	0.430855	5144.581543
1680.710732	0.096885	0.430855	5233.230957
1680.711631	0.096940	0.430855	5320.379883
1680.712569	0.097101	0.430855	5411.460449
1680.713475	0.097020	0.430855	5499.360840
1680.714372	0.096954	0.430855	5586.329102
1680.715256	0.097079	0.430855	5672.146973
1680.716186	0.097123	0.430855	5762.471191
1680.717098	0.096932	0.430855	5850.873535
1680.717994	0.097039	0.430855	5937.820312
1681.704399	1.407297	0.443214	624.839966
1681.705292	1.915650	0.443214	2335.515137
1681.706268	1.876926	0.443214	4167.395020
1681.707198	0.947238	0.443214	5048.326172
1681.708097	0.100789	0.443214	5138.935059
1681.709036	0.096973	0.443214	5229.992187
1681.709938	0.097009	0.443214	5317.494629
1681.710844	0.097090	0.443214	5405.458008
1681.711736	0.097046	0.443214	5492.022949
1681.712681	0.097090	0.443214	5583.772949
1681.713587	0.097050	0.443214	5671.699707
1681.714475	0.097031	0.443214	5757.863281
1681.715378	0.097039	0.443214	5845.489258
1681.716311	0.097090	0.443214	5936.074219
1682.721221	1.390071	0.431161	604.680786
1682.722177	1.915774	0.431161	2436.160645
1682.723096	1.877666	0.431161	4161.735840
1682.724007	0.986935	0.431161	5060.833496
1682.724893	0.102323	0.431161	5151.491699
1682.725837	0.097053	0.431161	5243.109863
1682.726744	0.097042	0.431161	5331.126953
1682.727636	0.097042	0.431161	5417.688477
1682.728529	0.097046	0.431161	5504.350586
1682.729475	0.097130	0.431161	5596.235840
1682.730388	0.097064	0.431161	5684.855469
1682.731286	0.097108	0.431161	5772.058594
1682.732216	0.097094	0.431161	5862.355469
1682.733111	0.097137	0.431161	5949.293457
1683.717093	1.430544	0.454847	658.050415
1683.717993	1.917528	0.454847	2383.825684
1683.718910	1.878563	0.454847	4106.468262
1683.719866	0.948519	0.454847	5013.252930
1683.720766	0.100946	0.454847	5104.104492
1683.721655	0.096976	0.454847	5190.316406
1683.722579	0.097108	0.454847	5280.044434
1683.723495	0.097097	0.454847	5368.985352
1683.724398	0.097108	0.454847	5456.673828
1683.725285	0.097086	0.454847	5542.789062
1683.726234	0.097134	0.454847	5634.969238
1683.727131	0.097061	0.454847	5722.032715
1683.728051	0.097075	0.454847	5811.341797
1683.728951	0.097075	0.454847	5898.709473
1684.735828	1.412860	0.437139	628.722717
1684.736754	1.917122	0.437139	2403.977295
1684.737663	1.878761	0.437139	4111.770996
1684.738607	0.993182	0.437139	5049.334961
1684.739509	0.101693	0.437139	5141.062012
1684.740405	0.097028	0.437139	5227.998535
1684.741291	0.097028	0.437139	5313.964844
1684.742226	0.097075	0.437139	5404.729980
1684.743131	0.097031	0.437139	5492.543457
1684.744038	0.097083	0.437139	5580.597168
1684.744926	0.097039	0.437139	5666.767578
1684.745872	0.097148	0.437139	5758.669922
1684.746781	0.097064	0.437139	5846.901367
1684.747679	0.097083	0.437139	5934.081543
1685.729889	1.426809	0.457655	646.344482
1685.730790	1.917345	0.457655	2373.872314
1685.731715	1.879530	0.457655	4112.437500
1685.732649	0.997647	0.457655	5044.239258
1685.733557	0.102187	0.457655	5137.025391
1685.734449	0.096976	0.457655	5223.528320
1685.735385	0.097123	0.457655	5314.435059
1685.736289	0.097108	0.457655	5402.220703
1685.737192	0.097050	0.457655	5489.856445
1685.738081	0.097061	0.457655	5576.143066
1685.739022	0.097141	0.457655	5667.552734
1685.739922	0.097020	0.457655	5754.871094
1685.740817	0.097046	0.457655	5841.727051
1685.741739	0.097130	0.457655	5931.281250
1686.750188	1.429592	0.437429	661.901184
1686.751097	1.917206	0.437429	2404.641113
1686.751992	1.879208	0.437429	4086.531982
1686.752962	0.950262	0.437429	5008.286621
1686.753861	0.101049	0.437429	5099.129395
1686.754776	0.097020	0.437429	5187.902832
1686.755671	0.097017	0.437429	5274.732910
1686.756622	0.097020	0.437429	5366.999023
1686.757523	0.096980	0.437429	5454.377930
1686.758409	0.097119	0.437429	5540.425293
1686.759343	0.097094	0.437429	5631.110840
1686.760248	0.097072	0.437429	5718.960449
1686.761167	0.097017	0.437429	5808.118652
1686.762055	0.097024	0.437429	5894.275879
1687.743200	1.424040	0.462795	646.514343
1687.744103	1.916678	0.462795	2377.274902
1687.744995	1.879585	0.462795	4053.864746
1687.745955	1.011519	0.462795	5024.922852
1687.746850	0.102484	0.462795	5116.645996
1687.747740	0.097006	0.462795	5202.980957
1687.748679	0.097159	0.462795	5294.213867
1687.749584	0.097097	0.462795	5382.086914
1687.750489	0.097061	0.462795	5469.926758
1687.751375	0.097104	0.462795	5555.961426
1687.752320	0.097159	0.462795	5647.776855
1687.753227	0.097101	0.462795	5735.847168
1687.754118	0.097137	0.462795	5822.396484
1687.755059	0.097119	0.462795	5913.785645
1688.763468	1.396073	0.438283	612.876038
1688.764364	1.916177	0.438283	2329.770508
1688.765321	1.878728	0.438283	4127.713379
1688.766245	0.995416	0.438283	5047.478027
1688.767142	0.101873	0.438283	5138.857910
1688.768071	0.097013	0.438283	5228.982910
1688.768990	0.097101	0.438283	5318.218750
1688.769903	0.097075	0.438283	5406.848633
1688.770801	0.097090	0.438283	5494.035156
1688.771744	0.097020	0.438283	5585.525391
1688.772643	0.097013	0.438283	5672.740234
1688.773541	0.097035	0.438283	5759.877441
1688.774428	0.097064	0.438283	5845.973633
1688.775349	0.097064	0.438283	5935.369629
1689.757004	1.394099	0.467992	605.039001
1689.757932	1.915712	0.467992	2382.819580
1689.758862	1.878164	0.467992	4129.512207
1689.759789	0.984719	0.467992	5042.346680
1689.760681	0.102012	0.467992	5133.341309
1689.761626	0.097035	0.467992	5225.039062
1689.762522	0.096991	0.467992	5311.942871
1689.763423	0.097042	0.467992	5399.377930
1689.764316	0.097086	0.467992	5486.075684
1689.765253	0.097104	0.467992	5577.062500
1689.766158	0.097097	0.467992	5664.935547
1689.767056	0.097072	0.467992	5752.105957
1689.767985	0.097053	0.467992	5842.268555
1689.768893	0.097152	0.467992	5930.482422
1690.776788	1.422484	0.434230	638.695374
1690.777719	1.917341	0.434230	2423.740234
1690.778620	1.877435	0.434230	4115.309570
1690.779605	0.899879	0.434230	5001.690430
1690.780509	0.099928	0.434230	5092.025391
1690.781397	0.097013	0.434230	5178.172852
1690.782336	0.097159	0.434230	5269.405762
1690.783258	0.097086	0.434230	5358.919434
1690.784178	0.097094	0.434230	5448.245605
1690.785070	0.097064	0.434230	5534.826660
1690.786017	0.097119	0.434230	5626.798340
1690.786907	0.097039	0.434230	5713.162598
1690.787800	0.097090	0.434230	5799.863770
1690.788719	0.097057	0.434230	5889.059082
1691.771342	1.408894	0.465555	618.504517
1691.772297	1.917257	0.465555	2449.484863
1691.773199	1.877838	0.465555	4143.294922
1691.774097	1.034293	0.465555	5072.090332
1691.775026	0.103411	0.465555	5168.158691
1691.775944	0.097064	0.465555	5257.263672
1691.776844	0.097017	0.465555	5344.578613
1691.777737	0.097115	0.465555	5431.302734
1691.778669	0.097181	0.465555	5521.875977
1691.779579	0.097126	0.465555	5610.261230
1691.780479	0.097104	0.465555	5697.655273
1691.781417	0.097141	0.465555	5788.773437
1691.782317	0.097134	0.465555	5876.193848
1691.783215	0.097097	0.465555	5963.387207
1692.789473	1.430116	0.439636	652.132874
1692.790368	1.917125	0.439636	2367.959961
1692.791319	1.877560	0.439636	4153.519531
1692.792246	0.961593	0.439636	5044.916504
1692.793143	0.101239	0.439636	5135.728027
1692.794028	0.096932	0.439636	5221.513184
1692.794975	0.097123	0.439636	5313.488281
1692.795887	0.097039	0.439636	5401.987305
1692.796785	0.097075	0.439636	5489.160645
1692.797715	0.097130	0.439636	5579.491699
1692.798623	0.097119	0.439636	5667.675781
1692.799529	0.096991	0.439636	5755.549805
1692.800417	0.097112	0.439636	5841.785156
1692.801351	0.097163	0.439636	5932.535645
1693.786440	1.397922	0.465684	613.687927
1693.787334	1.915426	0.465684	2326.078857
1693.788325	1.876564	0.465684	4185.753418
1693.789252	0.927814	0.465684	5045.836914
1693.790150	0.100496	0.465684	5136.082031
1693.791081	0.097053	0.465684	5226.438477
1693.791989	0.097163	0.465684	5314.662598
1693.792885	0.097137	0.465684	5401.697754
1693.793773	0.097090	0.465684	5487.913574
1693.794713	0.097137	0.465684	5579.222656
1693.795606	0.097119	0.465684	5665.950195
1693.796508	0.097126	0.465684	5753.558105
1693.797399	0.097104	0.465684	5840.078125
1693.798346	0.097141	0.465684	5932.070801
1694.802266	1.417841	0.444466	643.699646
1694.803162	1.916887	0.444466	2361.230469
1694.804084	1.879655	0.444466	4094.271973
1694.805037	0.985682	0.444466	5033.626953
1694.805939	0.101470	0.444466	5125.152832
1694.806837	0.096984	0.444466	5212.244141
1694.807764	0.097137	0.444466	5302.290527
1694.808678	0.097112	0.444466	5391.050781
1694.809578	0.097024	0.444466	5478.372070
1694.810496	0.097083	0.444466	5567.493652
1694.811386	0.097020	0.444466	5653.841797
1694.812312	0.097079	0.444466	5743.736816
1694.813219	0.097009	0.444466	5831.724121
1694.814139	0.097094	0.444466	5921.050293
1695.801691	1.406418	0.471931	620.230530
1695.802594	1.916349	0.471931	2350.693604
1695.803519	1.879457	0.471931	4089.190918
1695.804435	1.048751	0.471931	5049.847168
1695.805360	0.102543	0.471931	5144.699219
1695.806260	0.096976	0.471931	5231.978027
1695.807147	0.097061	0.471931	5318.070801
1695.808089	0.097137	0.471931	5409.574219
1695.809007	0.097017	0.471931	5498.635254
1695.809906	0.097046	0.471931	5585.879395
1695.810795	0.097104	0.471931	5672.205078
1695.811747	0.097159	0.471931	5764.700684
1695.812653	0.097061	0.471931	5852.637695
1695.813543	0.097101	0.471931	5939.057617
1696.814430	1.428344	0.445248	639.897888
1696.815346	1.916880	0.445248	2395.760010
1696.816259	1.878633	0.445248	4110.952148
1696.817174	1.022432	0.445248	5046.477051
1696.818111	0.101078	0.445248	5141.187012
1696.819024	0.096984	0.445248	5229.732910
1696.819922	0.097075	0.445248	5316.906250
1696.820867	0.097130	0.445248	5408.694336
1696.821775	0.097167	0.445248	5496.921875
1696.822671	0.097046	0.445248	5583.875000
1696.823555	0.097134	0.445248	5669.741211
1696.824501	0.097170	0.445248	5761.664551
1696.825416	0.097123	0.445248	5850.531738
1696.826312	0.097097	0.445248	5937.530762
1697.816905	1.396725	0.472101	610.368774
1697.817870	1.917294	0.472101	2460.557129
1697.818795	1.876578	0.472101	4196.392090
1697.819693	0.972517	0.472101	5069.712402
1697.820621	0.101649	0.472101	5164.042969
1697.821523	0.097072	0.472101	5251.601562
1697.822420	0.097017	0.472101	5338.625488
1697.823314	0.097094	0.472101	5425.427246
1697.824263	0.097181	0.472101	5517.652344
1697.825162	0.097090	0.472101	5604.936035
1697.826063	0.097090	0.472101	5692.414062
1697.826948	0.097061	0.472101	5778.312500
1697.827888	0.097130	0.472101	5869.614746
1697.828786	0.097079	0.472101	5956.791504
1698.827297	1.462039	0.452261	769.032288
1698.828223	1.916938	0.452261	2544.117187
1698.829122	1.875216	0.452261	4229.936523
1698.830019	0.926034	0.452261	5060.588867
1698.830970	0.099133	0.452261	5154.864746
1698.831879	0.097072	0.452261	5243.102539
1698.832775	0.097024	0.452261	5330.036133
1698.833693	0.097141	0.452261	5419.211914
1698.834613	0.097108	0.452261	5508.551270
1698.835521	0.096984	0.452261	5596.612305
1698.836415	0.097126	0.452261	5683.443359
1698.837357	0.097163	0.452261	5774.971191
1698.838259	0.097145	0.452261	5862.595703
1698.839159	0.097086	0.452261	5949.973145
1699.831773	1.433167	0.476608	654.957092
1699.832667	1.917279	0.476608	2369.004639
1699.833560	1.880742	0.476608	4048.507324
1699.834532	1.019026	0.476608	5039.000488
1699.835444	0.102744	0.476608	5132.703125
1699.836344	0.097141	0.476608	5220.129883
1699.837227	0.097108	0.476608	5305.876465
1699.838177	0.097163	0.476608	5398.181152
1699.839088	0.097159	0.476608	5486.693359
1699.839979	0.097211	0.476608	5573.308105
1699.840918	0.097218	0.476608	5664.595703
1699.841831	0.097196	0.476608	5753.335937
1699.842732	0.097134	0.476608	5840.853516
1699.843621	0.097170	0.476608	5927.237793
1700.839881	1.395736	0.454799	605.749451
1700.840844	1.917598	0.454799	2452.395996
1700.841766	1.877274	0.454799	4183.242676
1700.842670	0.975450	0.454799	5065.049805
1700.843615	0.101847	0.454799	5161.294922
1700.844517	0.097137	0.454799	5248.913086
1700.845416	0.097152	0.454799	5336.252930
1700.846305	0.097141	0.454799	5422.611328
1700.847239	0.097269	0.454799	5513.460937
1700.848141	0.097229	0.454799	5601.161621
1700.849044	0.097200	0.454799	5688.933105
1700.849932	0.097222	0.454799	5775.266113
1700.850875	0.097251	0.454799	5866.973633
1700.851784	0.097189	0.454799	5955.318359
1701.846352	1.404031	0.472415	621.985657
1701.847323	1.918059	0.472415	2484.420898
1701.848231	1.876743	0.472415	4188.503906
1701.849142	0.958715	0.472415	5061.893066
1701.850060	0.101506	0.472415	5155.075684
1701.850974	0.097130	0.472415	5243.852539
1701.851881	0.097178	0.472415	5331.992676
1701.852772	0.097152	0.472415	5418.555176
1701.853706	0.097192	0.472415	5509.333008
1701.854613	0.097119	0.472415	5597.419922
1701.855519	0.097141	0.472415	5685.429687
1701.856410	0.097185	0.472415	5772.021484
1701.857353	0.097192	0.472415	5863.673828
1701.858253	0.097192	0.472415	5951.146973
1702.852837	1.437711	0.458239	658.471680
1702.853742	1.917393	0.458239	2393.711914
1702.854699	1.876794	0.458239	4189.804199
1702.855616	0.933823	0.458239	5046.120117
1702.856542	0.100038	0.458239	5138.755371
1702.857432	0.097028	0.458239	5225.109863
1702.858378	0.097123	0.458239	5316.988281
1702.859278	0.097097	0.458239	5404.375977
1702.860167	0.097108	0.458239	5490.705078
1702.861100	0.097112	0.458239	5581.310547
1702.862000	0.097115	0.458239	5668.714355
1702.862918	0.097064	0.458239	5757.819336
1702.863814	0.097167	0.458239	5844.880859
1702.864759	0.097159	0.458239	5936.696289
1703.860571	1.421250	0.478594	636.719971
1703.861499	1.916825	0.478594	2415.533691
1703.862400	1.878853	0.478594	4108.379883
1703.863343	0.990070	0.478594	5042.015625
1703.864246	0.101334	0.478594	5133.520508
1703.865147	0.097028	0.478594	5220.942383
1703.866034	0.097050	0.478594	5307.025391
1703.866965	0.097218	0.478594	5397.535156
1703.867869	0.097203	0.478594	5485.407227
1703.868774	0.097130	0.478594	5573.310059
1703.869662	0.097086	0.478594	5659.522461
1703.870606	0.097203	0.478594	5751.282227
1703.871509	0.097156	0.478594	5839.013672
1703.872402	0.097159	0.478594	5925.776855
1704.866122	1.396102	0.465273	608.700623
1704.867081	1.917587	0.465273	2447.666260
1704.867990	1.877787	0.465273	4154.574707
1704.868893	1.008387	0.465273	5065.148437
1704.869820	0.102880	0.465273	5160.518066
1704.870732	0.097170	0.465273	5249.137695
1704.871641	0.097134	0.465273	5337.432129
1704.872531	0.097196	0.465273	5423.936523
1704.873456	0.097317	0.465273	5513.954590
1704.874363	0.097185	0.465273	5602.101562
1704.875264	0.097134	0.465273	5689.619141
1704.876150	0.097163	0.465273	5775.705566
1704.877102	0.097214	0.465273	5868.253418
1704.878012	0.097170	0.465273	5956.678711
1705.874560	1.439187	0.473627	709.519165
1705.875476	1.917378	0.473627	2465.837402
1705.876373	1.877505	0.473627	4149.959473
1705.877322	0.948603	0.473627	5050.184082
1705.878233	0.100419	0.473627	5141.665527
1705.879133	0.097042	0.473627	5229.003418
1705.880019	0.097181	0.473627	5315.105957
1705.880982	0.097207	0.473627	5408.716309
1705.881876	0.097225	0.473627	5495.635742
1705.882789	0.097170	0.473627	5584.352539
1705.883683	0.097159	0.473627	5671.212891
1705.884629	0.097233	0.473627	5763.194824
1705.885531	0.097156	0.473627	5850.829102
1705.886419	0.097137	0.473627	5937.086914
1706.879690	1.397538	0.457792	614.916626
1706.880669	1.917777	0.457792	2492.420410
1706.881579	1.876271	0.457792	4199.826660
1706.882480	0.963146	0.457792	5067.621094
1706.883413	0.101726	0.457792	5162.531738
1706.884325	0.097134	0.457792	5251.117676
1706.885221	0.097039	0.457792	5338.064453
1706.886106	0.097126	0.457792	5424.021484
1706.887040	0.097178	0.457792	5514.785645
1706.887958	0.097130	0.457792	5603.951172
1706.888857	0.097108	0.457792	5691.251465
1706.889795	0.097152	0.457792	5782.380371
1706.890699	0.097229	0.457792	5870.275391
1706.891598	0.097134	0.457792	5957.598633
1707.887958	1.415094	0.475815	635.377197
1707.888859	1.917155	0.475815	2362.733398
1707.889812	1.877970	0.475815	4152.438965
1707.890729	0.987048	0.475815	5057.562500
1707.891630	0.102089	0.475815	5149.544434
1707.892518	0.097108	0.475815	5235.776367
1707.893451	0.097196	0.475815	5326.460449
1707.894356	0.097178	0.475815	5414.406250
1707.895255	0.097145	0.475815	5501.739258
1707.896181	0.097225	0.475815	5591.770020
1707.897093	0.097273	0.475815	5680.482910
1707.898000	0.097115	0.475815	5768.566406
1707.898900	0.097130	0.475815	5855.983398
1707.899836	0.097196	0.475815	5946.958984
1708.893400	1.416365	0.461494	630.282288
1708.894321	1.916975	0.461494	2395.816406
1708.895231	1.879135	0.461494	4105.829102
1708.896185	0.983610	0.461494	5044.192871
1708.897093	0.101495	0.461494	5136.350586
1708.897990	0.097068	0.461494	5223.420410
1708.898877	0.097185	0.461494	5309.623535
1708.899833	0.097225	0.461494	5402.570801
1708.900727	0.097233	0.461494	5489.496582
1708.901624	0.097163	0.461494	5576.651855
1708.902514	0.097123	0.461494	5663.091309
1708.903462	0.097244	0.461494	5755.278320
1708.904371	0.097174	0.461494	5843.609375
1708.905267	0.097167	0.461494	5930.670898
1709.901527	1.418079	0.473402	640.971497
1709.902422	1.917063	0.473402	2356.742676
1709.903313	1.880643	0.473402	4032.395996
1709.904285	1.012350	0.473402	5016.399902
1709.905184	0.102737	0.473402	5108.760254
1709.906076	0.097145	0.473402	5195.413574
1709.907021	0.097174	0.473402	5287.243164
1709.907929	0.097137	0.473402	5375.443848
1709.908843	0.097159	0.473402	5464.247559
1709.909739	0.097130	0.473402	5551.276367
1709.910658	0.097214	0.473402	5640.616211
1709.911579	0.097141	0.473402	5730.083008
1709.912496	0.097174	0.473402	5819.191406
1709.913387	0.097185	0.473402	5905.783203
1710.907734	1.418730	0.458090	637.010010
1710.908637	1.917253	0.458090	2368.289795
1710.909552	1.880083	0.458090	4088.565918
1710.910489	1.015448	0.458090	5040.040527
1710.911377	0.103114	0.458090	5131.605957
1710.912262	0.097061	0.458090	5217.504395
1710.913199	0.097218	0.458090	5308.597656
1710.914114	0.097079	0.458090	5397.424805
1710.915019	0.097141	0.458090	5485.337402
1710.915907	0.097064	0.458090	5571.530273
1710.916848	0.097097	0.458090	5662.898926
1710.917746	0.097046	0.458090	5750.045898
1710.918638	0.097090	0.458090	5836.649902
1710.919587	0.097123	0.458090	5928.819336
1711.914581	1.407609	0.474417	627.793457
1711.915476	1.916389	0.474417	2342.961914
1711.916422	1.878376	0.474417	4119.906250
1711.917351	0.991904	0.474417	5041.385254
1711.918244	0.102103	0.474417	5132.563477
1711.919168	0.097115	0.474417	5222.298340
1711.920075	0.097317	0.474417	5310.564941
1711.920971	0.097137	0.474417	5397.600098
1711.921857	0.097170	0.474417	5483.692871
1711.922788	0.097269	0.474417	5574.250488
1711.923693	0.097112	0.474417	5662.136719
1711.924592	0.097094	0.474417	5749.423828
1711.925478	0.097189	0.474417	5835.533203
1711.926409	0.097214	0.474417	5926.039551
1712.922060	1.404705	0.449824	619.474731
1712.923033	1.917323	0.449824	2485.030029
1712.923949	1.876223	0.449824	4203.650391
1712.924850	0.959425	0.449824	5068.092285
1712.925797	0.101470	0.449824	5164.184082
1712.926691	0.097229	0.449824	5251.106934
1712.927594	0.097112	0.449824	5338.798828
1712.928483	0.097163	0.449824	5425.176758
1712.929425	0.097174	0.449824	5516.714844
1712.930328	0.097233	0.449824	5604.516113
1712.931238	0.097181	0.449824	5692.951172
1712.932128	0.097192	0.449824	5779.452148
1712.933075	0.097258	0.449824	5871.555664
1712.933983	0.097211	0.449824	5959.822754
1713.927625	1.389543	0.467045	604.451355
1713.928520	1.916320	0.467045	2319.557617
1713.929474	1.878816	0.467045	4111.948242
1713.930396	1.014675	0.467045	5047.479004
1713.931292	0.102744	0.467045	5139.537598
1713.932214	0.097090	0.467045	5229.054199
1713.933117	0.097167	0.467045	5316.795898
1713.934020	0.097112	0.467045	5404.487793
1713.934911	0.097178	0.467045	5491.073242
1713.935845	0.097189	0.467045	5581.847656
1713.936748	0.097178	0.467045	5669.599121
1713.937650	0.097156	0.467045	5757.233398
1713.938537	0.097152	0.467045	5843.407227
1713.939490	0.097167	0.467045	5936.007324
1714.936917	1.411465	0.447721	632.336243
1714.937814	1.917261	0.447721	2352.119141
1714.938735	1.879918	0.447721	4083.523682
1714.939685	0.993263	0.447721	5027.123535
1714.940593	0.102008	0.447721	5119.747070
1714.941489	0.097112	0.447721	5206.759277
1714.942428	0.097266	0.447721	5298.091797
1714.943332	0.097189	0.447721	5385.950195
1714.944222	0.097137	0.447721	5472.402344
1714.945111	0.097159	0.447721	5558.776855
1714.946056	0.097302	0.447721	5650.727539
1714.946968	0.097207	0.447721	5739.380371
1714.947868	0.097214	0.447721	5826.873047
1714.948792	0.097141	0.447721	5916.631348
1715.939950	1.415651	0.466715	673.849670
1715.940898	1.917155	0.466715	2491.312256
1715.941824	1.875289	0.466715	4227.830078
1715.942727	0.905131	0.466715	5045.163086
1715.943680	0.099261	0.466715	5139.759277
1715.944571	0.097130	0.466715	5226.302246
1715.945458	0.097137	0.466715	5312.463379
1715.946402	0.097072	0.466715	5404.099121
1715.947312	0.097200	0.466715	5492.550781
1715.948232	0.097192	0.466715	5581.967773
1715.949130	0.097126	0.466715	5669.187500
1715.950059	0.097185	0.466715	5759.472656
1715.950965	0.097115	0.466715	5847.459473
1715.951882	0.097181	0.466715	5936.574707
1716.952460	1.434840	0.445663	721.724548
1716.953387	1.917634	0.445663	2499.371582
1716.954296	1.875996	0.445663	4204.652344
1716.955193	0.951321	0.445663	5057.987305
1716.956149	0.099485	0.445663	5153.094727
1716.957058	0.097075	0.445663	5241.335937
1716.957954	0.097200	0.445663	5328.426758
1716.958839	0.097148	0.445663	5414.403320
1716.959779	0.097163	0.445663	5505.736816
1716.960681	0.097185	0.445663	5593.397949
1716.961570	0.097115	0.445663	5679.733398
1716.962508	0.097189	0.445663	5770.896484
1716.963420	0.097130	0.445663	5859.479004
1716.964315	0.097141	0.445663	5946.420410
1717.952367	1.460713	0.462131	687.995789
1717.953294	1.917217	0.462131	2465.255859
1717.954193	1.877805	0.462131	4153.402832
1717.955130	0.977882	0.462131	5069.678223
1717.956048	0.100781	0.462131	5162.195312
1717.956945	0.097137	0.462131	5249.327637
1717.957837	0.097174	0.462131	5336.006836
1717.958765	0.097277	0.462131	5426.279297
1717.959672	0.097189	0.462131	5514.429687
1717.960576	0.097174	0.462131	5602.274902
1717.961467	0.097185	0.462131	5688.866699
1717.962415	0.097192	0.462131	5781.004883
1717.963324	0.097097	0.462131	5869.266113
1717.964219	0.097167	0.462131	5956.230469
1718.967494	1.390792	0.449183	604.994629
1718.968457	1.915181	0.449183	2449.313477
1718.969376	1.877377	0.449183	4174.622559
1718.970286	0.978809	0.449183	5065.338379
1718.971177	0.101960	0.449183	5156.185059
1718.972116	0.097101	0.449183	5247.362793
1718.973024	0.097192	0.449183	5335.613281
1718.973927	0.097203	0.449183	5423.387695
1718.974814	0.097200	0.449183	5509.604004
1718.975753	0.097236	0.449183	5600.908691
1718.976663	0.097185	0.449183	5689.347168
1718.977558	0.097156	0.449183	5776.301758
1718.978504	0.097170	0.449183	5868.225098
1718.979408	0.097192	0.449183	5956.086914
1719.964617	1.397322	0.466215	614.821594
1719.965588	1.917418	0.466215	2476.634521
1719.966497	1.876673	0.466215	4182.530762
1719.967403	0.973663	0.466215	5064.669922
1719.968334	0.101935	0.466215	5159.571289
1719.969239	0.097200	0.466215	5247.537109
1719.970149	0.097057	0.466215	5335.858887
1719.971051	0.097090	0.466215	5423.434082
1719.971994	0.097126	0.466215	5515.024414
1719.972898	0.097050	0.466215	5602.757324
1719.973797	0.097123	0.466215	5690.070801
1719.974685	0.097042	0.466215	5776.244141
1719.975618	0.097115	0.466215	5866.853027
1719.976519	0.097039	0.466215	5954.284668
1720.982659	1.464360	0.442327	726.322754
1720.983574	1.917404	0.442327	2480.747070
1720.984496	1.876190	0.442327	4210.594727
1720.985398	0.951365	0.442327	5068.725586
1720.986360	0.099390	0.442327	5164.338379
1720.987262	0.097039	0.442327	5251.867187
1720.988150	0.097159	0.442327	5338.144531
1720.989081	0.097126	0.442327	5428.569336
1720.989999	0.097126	0.442327	5517.731445
1720.990890	0.097072	0.442327	5604.222168
1720.991779	0.097148	0.442327	5690.586914
1720.992716	0.097156	0.442327	5781.622070
1720.993618	0.097112	0.442327	5869.216797
1720.994541	0.097134	0.442327	5958.871094
1721.977164	1.395949	0.472870	614.217346
1721.978057	1.916499	0.472870	2325.650879
1721.979033	1.877714	0.472870	4158.299316
1721.979953	0.961597	0.472870	5042.968262
1721.980863	0.100975	0.472870	5134.855957
1721.981750	0.097046	0.472870	5220.935547
1721.982706	0.097086	0.472870	5313.750000
1721.983610	0.097061	0.472870	5401.492676
1721.984500	0.097064	0.472870	5487.879883
1721.985439	0.097247	0.472870	5579.195312
1721.986346	0.097123	0.472870	5667.285645
1721.987238	0.097094	0.472870	5753.893066
1721.988126	0.097141	0.472870	5840.154297
1721.989055	0.097167	0.472870	5930.422363
1722.997322	1.401332	0.444313	615.184631
1722.998262	1.916495	0.444313	2416.690430
1722.999181	1.877673	0.444313	4142.272461
1723.000094	0.998265	0.444313	5053.688965
1723.000986	0.102290	0.444313	5144.931641
1723.001940	0.097167	0.444313	5237.628906
1723.002845	0.097090	0.444313	5325.495117
1723.003749	0.097068	0.444313	5413.244629
1723.004674	0.097200	0.444313	5503.154297
1723.005578	0.097174	0.444313	5590.999512
1723.006487	0.097170	0.444313	5679.327637
1723.007376	0.097123	0.444313	5765.669922
1723.008304	0.097097	0.444313	5855.775879
1723.009213	0.097211	0.444313	5944.140625
1723.990224	1.401811	0.477817	616.797058
1723.991120	1.916232	0.477817	2333.740723
1723.992077	1.878472	0.477817	4131.437988
1723.993003	0.992805	0.477817	5050.775391
1723.993893	0.102576	0.477817	5142.067871
1723.994851	0.097097	0.477817	5235.086914
1723.995750	0.097222	0.477817	5322.489258
1723.996648	0.097083	0.477817	5409.669434
1723.997531	0.097119	0.477817	5495.425781
1723.998475	0.097258	0.477817	5587.237793
1723.999380	0.097167	0.477817	5675.173828
1724.000275	0.097104	0.477817	5762.082520
1724.001188	0.097269	0.477817	5850.889160
1724.002109	0.097222	0.477817	5940.430176
1725.011197	1.423627	0.446436	696.153442
1725.012119	1.917510	0.446436	2464.097412
1725.013025	1.876919	0.446436	4164.585937
1725.013926	0.991959	0.446436	5058.341309
1725.014871	0.100507	0.446436	5153.319824
1725.015776	0.097112	0.446436	5241.206055
1725.016681	0.097134	0.446436	5329.112305
1725.017569	0.097167	0.446436	5415.396484
1725.018523	0.097203	0.446436	5508.128418
1725.019432	0.097167	0.446436	5596.453125
1725.020332	0.097123	0.446436	5683.863770
1725.021268	0.097203	0.446436	5774.846191
1725.022166	0.097273	0.446436	5862.197266
1725.023063	0.097137	0.446436	5949.329590
1726.003675	1.431185	0.478719	659.776428
1726.004574	1.917440	0.478719	2383.555176
1726.005527	1.877893	0.478719	4173.187500
1726.006457	0.939635	0.478719	5047.047852
1726.007376	0.100360	0.478719	5139.278809
1726.008263	0.097039	0.478719	5225.352051
1726.009210	0.097108	0.478719	5317.313477
1726.010101	0.097083	0.478719	5403.813965
1726.010991	0.097152	0.478719	5490.279297
1726.011918	0.097185	0.478719	5580.369629
1726.012834	0.097046	0.478719	5669.263672
1726.013735	0.097053	0.478719	5756.708496
1726.014629	0.097145	0.478719	5843.556152
1726.015571	0.097119	0.478719	5935.042480
1727.025244	1.420243	0.453429	633.428345
1727.026151	1.917206	0.453429	2372.333984
1727.027045	1.880852	0.453429	4053.815918
1727.028028	0.963010	0.453429	5000.455078
1727.028925	0.101451	0.453429	5091.457031
1727.029827	0.097104	0.453429	5179.045410
1727.030716	0.097233	0.453429	5265.485352
1727.031660	0.097273	0.453429	5357.311035
1727.032567	0.097203	0.453429	5445.474609
1727.033452	0.097247	0.453429	5531.538574
1727.034380	0.097196	0.453429	5621.736328
1727.035291	0.097214	0.453429	5710.298828
1727.036195	0.097163	0.453429	5798.134277
1727.037086	0.097222	0.453429	5884.758789
1728.017350	1.407173	0.487606	613.527405
1728.018316	1.917916	0.487606	2466.234375
1728.019234	1.876857	0.487606	4189.188965
1728.020140	0.964882	0.487606	5063.371582
1728.021082	0.101027	0.487606	5158.538574
1728.021985	0.097094	0.487606	5246.213867
1728.022888	0.097145	0.487606	5333.935547
1728.023773	0.097170	0.487606	5419.931152
1728.024714	0.097240	0.487606	5511.434082
1728.025613	0.097196	0.487606	5598.813477
1728.026511	0.097126	0.487606	5686.033203
1728.027431	0.097178	0.487606	5775.436523
1728.028354	0.097302	0.487606	5865.246582
1728.029267	0.097156	0.487606	5953.949707
1729.038051	1.420785	0.466006	642.194763
1729.038977	1.917019	0.466006	2417.354492
1729.039872	1.879098	0.466006	4099.146973
1729.040819	0.992315	0.466006	5038.868652
1729.041726	0.101400	0.466006	5130.838379
1729.042624	0.097035	0.466006	5217.975586
1729.043516	0.097104	0.466006	5304.592773
1729.044465	0.097225	0.466006	5396.859863
1729.045365	0.097068	0.466006	5484.220703
1729.046270	0.097141	0.466006	5572.133301
1729.047155	0.097130	0.466006	5658.093262
1729.048094	0.097178	0.466006	5749.343262
1729.048999	0.097167	0.466006	5837.279297
1729.049889	0.097229	0.466006	5923.812988
1730.031569	1.409407	0.489845	625.776611
1730.032493	1.917012	0.489845	2397.095459
1730.033388	1.880219	0.489845	4079.891113
1730.034343	1.027163	0.489845	5060.832031
1730.035244	0.103246	0.489845	5153.856445
1730.036145	0.097108	0.489845	5241.351074
1730.037031	0.097137	0.489845	5327.415039
1730.037966	0.097192	0.489845	5418.290039
1730.038875	0.097203	0.489845	5506.647949
1730.039774	0.097167	0.489845	5594.000977
1730.040703	0.097152	0.489845	5684.255371
1730.041611	0.097266	0.489845	5772.572754
1730.042511	0.097137	0.489845	5859.996582
1730.043399	0.097185	0.489845	5946.296875
1731.051614	1.424872	0.474691	644.042053
1731.052518	1.917034	0.474691	2377.040527
1731.053408	1.880277	0.474691	4050.487061
1731.054375	0.997408	0.474691	5014.980957
1731.055282	0.101913	0.474691	5107.416016
1731.056188	0.097086	0.474691	5195.375977
1731.057099	0.097156	0.474691	5283.884766
1731.058034	0.097178	0.474691	5374.746094
1731.058939	0.097134	0.474691	5462.652344
1731.059830	0.097178	0.474691	5549.237793
1731.060790	0.097159	0.474691	5642.510742
1731.061685	0.097214	0.474691	5729.517578
1731.062590	0.097196	0.474691	5817.479980
1731.063474	0.097222	0.474691	5903.423828
1732.045780	1.399900	0.492959	615.955994
1732.046673	1.916587	0.492959	2327.468018
1732.047639	1.878142	0.492959	4141.753418
1732.048563	0.975666	0.492959	5043.269043
1732.049460	0.101488	0.492959	5134.303711
1732.050381	0.097130	0.492959	5223.760742
1732.051301	0.097148	0.492959	5313.137207
1732.052211	0.097178	0.492959	5401.568848
1732.053107	0.097101	0.492959	5488.571289
1732.054023	0.097196	0.492959	5577.603027
1732.054914	0.097115	0.492959	5664.132812
1732.055864	0.097167	0.492959	5756.441406
1732.056782	0.097108	0.492959	5845.586914
1732.057671	0.097167	0.492959	5931.968262
1733.064662	1.418463	0.479130	634.053040
1733.065575	1.917554	0.479130	2384.779541
1733.066475	1.880453	0.479130	4077.187012
1733.067413	1.043148	0.479130	5055.660156
1733.068338	0.101675	0.479130	5149.709473
1733.069241	0.097068	0.479130	5237.361816
1733.070129	0.097156	0.479130	5323.636230
1733.071072	0.097090	0.479130	5415.191895
1733.071978	0.097112	0.479130	5503.175293
1733.072868	0.097072	0.479130	5589.568848
1733.073756	0.097101	0.479130	5675.794434
1733.074690	0.097185	0.479130	5766.565430
1733.075590	0.097094	0.479130	5853.949707
1733.076480	0.097178	0.479130	5940.437988
1734.060114	1.409487	0.487980	630.040771
1734.061052	1.917400	0.487980	2428.562012
1734.061976	1.876919	0.487980	4162.834961
1734.062883	0.986862	0.487980	5057.918457
1734.063824	0.101660	0.487980	5153.580566
1734.064733	0.097137	0.487980	5241.878418
1734.065638	0.097229	0.487980	5329.870605
1734.066527	0.097174	0.487980	5416.258301
1734.067463	0.097255	0.487980	5507.288574
1734.068373	0.097134	0.487980	5595.680176
1734.069266	0.097148	0.487980	5682.433594
1734.070183	0.097240	0.487980	5771.602539
1734.071092	0.097225	0.487980	5859.980469
1734.071994	0.097196	0.487980	5947.651367
