time (s)	energy (uJ)	charge (mC)	voltage (mV)	crossing#mod 255
1016.565418	32.550449	17.173195	1.895422	160
1017.582670	30.229120	17.171780	1.760395	161
1018.581772	32.396412	17.154518	1.888506	162
1019.598923	30.010361	17.173296	1.747502	163
1020.598093	32.074696	17.173965	1.867635	164
1021.613895	29.891142	17.189110	1.738958	165
1022.613428	31.366589	17.153868	1.828543	166
1023.629363	28.812218	17.189987	1.676105	167
1024.628266	30.296360	17.124598	1.769172	168
1025.644122	28.265085	17.158476	1.647296	169
1026.641871	28.899664	17.176489	1.682513	170
1027.659431	27.871386	17.152992	1.624870	171
1028.668664	29.861799	17.164581	1.739734	172
1029.673861	28.139418	17.154484	1.640354	173
1030.668224	29.454487	17.173206	1.715142	174
1031.687199	27.186846	17.169003	1.583484	175
1032.681042	30.131851	17.173805	1.754524	176
1033.698674	27.874365	17.159204	1.624456	177
1034.694636	31.182970	17.181587	1.814906	178
1035.708907	28.478842	17.184866	1.657205	179
1036.708108	32.355038	17.178946	1.883412	180
1037.717730	28.819445	17.176094	1.677881	181
1038.723718	32.052898	17.164814	1.867361	182
1039.729080	29.492682	17.153759	1.719313	183
1040.739815	31.601694	17.160860	1.841498	184
1041.741722	29.753017	17.113974	1.738522	185
1042.756731	31.665312	17.168966	1.844334	186
1043.756598	30.909781	17.160070	1.801262	187
1044.772795	32.624535	17.163759	1.900780	188
1045.772472	32.304668	17.168314	1.881645	189
1046.788322	33.132217	17.146139	1.932343	190
1047.789238	33.067883	17.159071	1.927137	191
1048.801414	34.344337	17.160891	2.001314	192
1049.816981	33.241249	17.172400	1.935737	193
1050.811495	34.004074	17.142233	1.983643	194
1051.816003	32.606853	17.175913	1.898406	195
1052.819929	32.744293	17.165197	1.907598	196
1053.829138	32.278114	17.164375	1.880530	197
1054.832134	32.699738	17.163073	1.905238	198
1055.844833	31.984980	17.153589	1.864623	199
1056.846738	32.472027	17.102036	1.898723	200
1057.860905	31.627529	17.154303	1.843708	201
1058.862365	33.196785	17.177227	1.932605	202
1059.877570	31.967978	17.149284	1.864100	203
1060.878254	34.121895	17.163435	1.988058	204
1061.893757	32.038906	17.157751	1.867314	205
1062.894364	34.339985	17.152550	2.002034	206
1063.909404	31.765440	17.119848	1.855474	207
1064.909935	33.398163	17.140322	1.948514	208
1065.924859	31.609732	17.173187	1.840645	209
1066.925764	32.557148	17.167952	1.896391	210
1067.939894	31.353354	17.148182	1.828378	211
1068.941547	32.148918	17.181149	1.871174	212
1069.954507	31.131084	17.165867	1.813546	213
1070.957164	31.426884	17.166893	1.830668	214
1071.967722	31.023853	17.142176	1.809797	215
1072.972189	31.588154	17.158476	1.840965	216
1073.979996	31.863012	17.154814	1.857380	217
1074.987547	32.777214	17.177940	1.908099	218
1075.992224	32.833218	17.160358	1.913318	219
1077.004140	34.124737	17.180307	1.986270	220
1078.006202	33.950554	17.176672	1.976550	221
1079.020220	35.534988	17.175465	2.068939	222
1080.033774	35.169769	17.170366	2.048283	223
1081.035088	35.940044	17.147415	2.095945	224
1082.036646	33.409004	17.176865	1.945000	225
1083.050006	35.519432	17.164053	2.069408	226
1084.052544	32.015865	17.168108	1.864845	227
1085.076850	34.930916	17.170582	2.034347	228
1086.068575	31.121840	17.159170	1.813715	229
1087.075502	33.298359	17.161804	1.940260	230
1088.083457	31.396654	17.123789	1.833511	231
1089.087119	35.274048	17.171816	2.054183	232
1090.098697	31.511625	17.157171	1.836645	233
1091.099542	37.738823	17.175110	2.197297	234
1092.114355	33.462658	17.159554	1.950089	235
1093.113189	38.312618	17.099691	2.240545	236
1094.130039	35.003967	17.149769	2.041075	237
1095.127891	37.377110	17.149387	2.179501	238
1096.145417	34.606827	17.179113	2.014471	239
1097.142878	36.078102	17.111790	2.108377	240
1098.160966	33.563396	17.157099	1.956240	241
1099.158296	34.755295	17.175148	2.023581	242
1100.176497	32.806198	17.144009	1.913566	243
1101.172788	33.404251	17.157751	1.946890	244
1102.191413	31.928913	17.167742	1.859820	245
1103.186096	32.706238	17.156887	1.906304	246
1104.204907	31.321323	17.150637	1.826248	247
1105.198501	32.214378	17.174139	1.875749	248
1106.217520	30.043407	17.164118	1.750361	249
1107.211152	31.590584	17.149986	1.842018	250
1108.229102	29.498581	17.160246	1.719007	251
1109.225194	32.214512	17.143684	1.879089	252
1110.241283	30.443066	17.155550	1.774532	253
1111.239643	33.788208	17.149128	1.970258	254
1112.253628	31.476082	17.166046	1.833624	255
1113.255341	34.532486	17.145159	2.014125	0
1114.266086	31.412600	17.156389	1.830956	1
1115.271139	35.039429	17.167698	2.041009	2
1116.277925	31.390745	17.098270	1.835902	3
1117.286928	34.986530	17.146496	2.040448	4
1118.290696	32.105991	17.109743	1.876474	5
1119.302682	34.400024	17.166515	2.003903	6
1120.304387	32.337650	17.144415	1.886192	7
1121.318130	34.203381	17.147032	1.994711	8
1122.318703	32.689285	17.147680	1.906339	9
1123.332855	35.131634	17.168825	2.046246	10
1124.334044	34.002537	17.151829	1.982444	11
1125.347854	36.215351	17.152393	2.111388	12
1126.349557	34.855167	17.131889	2.034520	13
1127.361753	37.333710	17.160637	2.175543	14
1128.364634	35.917454	17.146202	2.094776	15
1129.374063	36.999588	17.112417	2.162148	16
1130.391911	36.666901	17.161621	2.136564	17
1131.386023	36.073807	17.110065	2.108338	18
1132.392376	35.195080	17.127140	2.054931	19
1133.397916	35.932152	17.153149	2.094784	20
1134.406126	34.455837	17.136461	2.010674	21
1135.410871	35.059856	17.149548	2.044360	22
1136.420509	33.621765	17.150150	1.960436	23
1137.424788	34.348270	17.140974	2.003870	24
1138.435648	33.380222	17.137804	1.947754	25
1139.439055	33.827038	17.136662	1.973957	26
1140.450441	33.157719	17.142899	1.934196	27
1141.454523	33.545410	17.135031	1.957709	28
1142.465352	33.100071	17.145731	1.930514	29
1143.469617	33.501095	17.151638	1.953230	30
1144.479651	32.766605	17.153610	1.910187	31
1145.484884	33.019878	17.142256	1.926227	32
1146.493825	32.865143	17.154938	1.915783	33
1147.500581	33.635201	17.167509	1.959236	34
1148.507614	32.522034	17.111549	1.900590	35
1149.516822	34.099220	17.164944	1.986562	36
1150.521854	33.376682	17.152399	1.945890	37
1151.532918	34.646961	17.148203	2.020443	38
1152.549487	35.015503	17.133083	2.043736	39
1153.548837	35.576160	17.157351	2.073523	40
1154.550457	34.195702	17.090954	2.000807	41
1155.564228	35.820251	17.144974	2.089257	42
1156.565706	34.709972	17.159714	2.022759	43
1157.579394	35.555450	17.166601	2.071199	44
1158.580391	33.553627	17.140263	1.957591	45
1159.592826	34.942963	17.124039	2.040580	46
1160.595620	32.922874	17.164219	1.918111	47
1161.606175	34.854881	17.112423	2.036818	48
1162.611061	31.782520	17.131153	1.855247	49
1163.619444	34.947517	17.071709	2.047101	50
1164.626287	31.400967	17.133490	1.832725	51
1165.632051	35.855896	17.136429	2.092379	52
1166.641799	32.123989	17.163300	1.871668	53
1167.645165	37.155453	17.156410	2.165689	54
1168.657479	33.371960	17.146309	1.946306	55
1169.658427	37.840446	17.134798	2.208398	56
1170.672742	34.541504	17.139561	2.015309	57
1171.672389	38.508839	17.136953	2.247123	58
1172.687832	35.482311	17.168085	2.066760	59
1173.686403	38.557129	17.159103	2.247036	60
1174.702824	36.326710	17.138004	2.119658	61
1175.700617	38.392921	17.159508	2.237414	62
1176.717529	35.975952	17.163877	2.096027	63
1177.715260	36.999062	17.143288	2.158225	64
1178.731745	34.952023	17.152927	2.037671	65
1179.729112	35.730164	17.147961	2.083639	66
1180.745321	33.605907	17.078617	1.967718	67
1181.742811	34.516270	17.154884	2.012038	68
1182.758570	32.531826	17.132120	1.898879	69
1183.756713	34.291981	17.155844	1.998851	70
1184.771189	32.829460	17.157034	1.913470	71
1185.770919	34.745823	17.093935	2.032640	72
1186.783851	32.062569	17.096062	1.875436	73
1187.785905	35.013206	17.154230	2.041083	74
1188.796170	32.209686	17.167418	1.876211	75
1189.800989	34.944298	17.109016	2.042449	76
1190.809478	32.717426	17.157318	1.906908	77
1191.816338	35.434734	17.143631	2.066933	78
1192.822789	33.019283	17.139187	1.926538	79
1193.832221	35.381519	17.165373	2.061215	80
1194.836427	33.589966	17.151011	1.958483	81
1195.847926	35.069366	17.147848	2.045118	82
1196.850615	33.938236	17.140907	1.979956	83
1197.863413	35.242935	17.137766	2.056449	84
1198.865446	34.565609	17.142241	2.016400	85
1199.891890	38.383118	17.160454	2.236719	86
1200.880356	34.908054	17.131903	2.037605	87
1201.893452	36.678066	17.137899	2.140173	88
1202.895622	35.867088	17.095091	2.098093	89
1203.907475	38.014114	17.153189	2.216155	90
1204.910438	36.635632	17.156517	2.135377	91
1205.921213	37.707474	17.167011	2.196508	92
1206.924693	36.681873	17.142427	2.139830	93
1207.933836	36.997524	17.155079	2.156651	94
1208.938492	36.205181	17.151443	2.110912	95
1209.946874	36.287933	17.150530	2.115849	96
1210.952416	35.305092	17.139542	2.059862	97
1211.960332	35.545998	17.157541	2.071742	98
1212.966849	34.285534	17.158636	1.998150	99
1213.974579	35.303608	17.093338	2.065343	100
1214.980870	34.098335	17.154280	1.987745	101
1215.988856	34.259018	17.140867	1.998675	102
1216.995175	33.607170	17.137438	1.961038	103
1218.003418	34.329132	17.147858	2.001949	104
1219.023150	35.100235	17.141653	2.047658	105
1220.018381	33.751450	17.144512	1.968644	106
1221.023800	33.610073	17.125870	1.962532	107
1222.033577	33.759781	17.101509	1.974082	108
1223.038195	33.962337	17.145535	1.980827	109
1224.049097	34.501415	17.158976	2.010692	110
1225.052339	33.989471	17.163366	1.980350	111
1226.064767	34.783295	17.147463	2.028481	112
1227.067564	33.699635	17.094202	1.971408	113
1228.080476	34.784111	17.120722	2.031697	114
1229.081699	33.981575	17.157526	1.980564	115
1230.094983	35.651043	17.154171	2.078273	116
1231.097172	33.355907	17.143227	1.945719	117
1232.109264	35.536060	17.097355	2.078454	118
1233.112170	33.063671	17.152004	1.927685	119
1234.122977	35.004917	17.132643	2.043171	120
1235.127167	32.859177	17.139149	1.917200	121
1236.136492	34.357441	17.135841	2.005005	122
1237.141263	32.427113	17.163496	1.889307	123
1238.149788	35.067909	17.137367	2.046283	124
1239.156983	32.423615	17.143902	1.891262	125
1240.162984	35.718174	17.146059	2.083171	126
1241.171793	32.749245	17.164337	1.907982	127
1242.176463	37.152634	17.137896	2.167865	128
1243.186949	33.375542	17.143507	1.946833	129
1244.189687	37.422779	17.132338	2.184336	130
1245.201948	34.154064	17.136963	1.993006	131
1246.203020	37.909805	17.142815	2.211411	132
1247.217092	35.422760	17.157137	2.064608	133
1248.217082	38.059761	17.147184	2.219593	134
1249.231638	35.458061	17.096785	2.073961	135
1250.231276	37.848156	17.139894	2.208191	136
1251.259592	36.435402	17.140413	2.125702	137
1252.245234	37.673782	17.145153	2.197343	138
1253.260191	35.060524	17.128681	2.046890	139
1254.259139	36.073303	17.152733	2.103065	140
1255.273813	34.432362	17.127260	2.010383	141
1256.273144	35.394806	17.130350	2.066205	142
1257.287096	33.093300	17.149334	1.929713	143
1258.287489	34.563595	17.091846	2.022227	144
1259.300738	32.780441	17.134293	1.913148	145
1260.302061	34.609089	17.155031	2.017431	146
1261.313721	32.600430	17.140419	1.901962	147
1262.317277	34.780815	17.142696	2.028900	148
