time (s)	coil I (A)	last det (V)	int current (uC)
1802.751111	1.449547	0.225797	727.672668
1802.752013	1.918982	0.225797	2458.594238
1802.752950	1.876787	0.225797	4217.143555
1802.753862	0.918794	0.225797	5055.083496
1802.754806	0.099368	0.225797	5148.886719
1802.755708	0.097072	0.225797	5236.445312
1802.756599	0.097247	0.225797	5323.092773
1802.757520	0.097251	0.225797	5412.661133
1802.758441	0.097200	0.225797	5502.182129
1802.759334	0.097163	0.225797	5588.948730
1802.760222	0.097185	0.225797	5675.249023
1802.761162	0.097185	0.225797	5766.603027
1802.762056	0.097126	0.225797	5853.434082
1802.762975	0.097192	0.225797	5942.753906
1803.756929	1.474021	0.166545	728.166382
1803.757849	1.919509	0.166545	2494.114990
1803.758760	1.877996	0.166545	4204.968750
1803.759661	0.956239	0.166545	5066.540039
1803.760619	0.099866	0.166545	5162.211426
1803.761525	0.097207	0.166545	5250.280762
1803.762417	0.097174	0.166545	5336.959961
1803.763361	0.097163	0.166545	5428.682129
1803.764259	0.097280	0.166545	5516.040039
1803.765158	0.097163	0.166545	5603.389648
1803.766053	0.097148	0.166545	5690.337402
1803.766983	0.097222	0.166545	5780.753418
1803.767891	0.097211	0.166545	5869.020508
1803.768793	0.097214	0.166545	5956.708008
1804.753756	1.426223	0.226301	640.374146
1804.754681	1.918499	0.226301	2414.985352
1804.755575	1.880837	0.226301	4096.454102
1804.756511	1.019377	0.226301	5050.591309
1804.757419	0.102133	0.226301	5143.327637
1804.758322	0.097108	0.226301	5231.016113
1804.759224	0.097225	0.226301	5318.713379
1804.760152	0.097262	0.226301	5408.972656
1804.761066	0.097189	0.226301	5497.803223
1804.761965	0.097277	0.226301	5585.254883
1804.762852	0.097200	0.226301	5671.471191
1804.763809	0.097229	0.226301	5764.519531
1804.764712	0.097178	0.226301	5852.270996
1804.765609	0.097236	0.226301	5939.492187
1805.775315	1.409476	0.151338	621.579102
1805.776210	1.917737	0.151338	2337.953613
1805.777169	1.879830	0.151338	4140.710937
1805.778097	0.984111	0.151338	5053.966309
1805.778992	0.101949	0.151338	5145.210937
1805.779927	0.097119	0.151338	5236.017578
1805.780830	0.097185	0.151338	5323.775879
1805.781738	0.097167	0.151338	5412.003418
1805.782630	0.097148	0.151338	5498.659668
1805.783576	0.097174	0.151338	5590.586426
1805.784486	0.097222	0.151338	5679.058105
1805.785389	0.097119	0.151338	5766.756836
1805.786306	0.097244	0.151338	5855.929199
1805.787194	0.097130	0.151338	5942.180664
1806.760948	1.469601	0.228806	699.529968
1806.761859	1.918832	0.228806	2447.585693
1806.762787	1.878230	0.228806	4190.583008
1806.763686	0.973352	0.228806	5065.626465
1806.764648	0.099972	0.228806	5161.799316
1806.765548	0.097112	0.228806	5249.200195
1806.766440	0.097185	0.228806	5335.889160
1806.767378	0.097189	0.228806	5427.052246
1806.768293	0.097211	0.228806	5516.000000
1806.769185	0.097203	0.228806	5602.705566
1806.770128	0.097214	0.228806	5694.378906
1806.771025	0.097178	0.228806	5781.547363
1806.771930	0.097178	0.228806	5869.493164
1806.772819	0.097185	0.228806	5955.890625
1807.790924	1.411633	0.169119	622.530273
1807.791836	1.919110	0.169119	2372.758789
1807.792752	1.881237	0.169119	4095.971436
1807.793696	1.000400	0.169119	5040.349121
1807.794604	0.102382	0.169119	5133.311523
1807.795494	0.097159	0.169119	5219.783203
1807.796431	0.097247	0.169119	5310.903809
1807.797337	0.097174	0.169119	5398.943359
1807.798238	0.097218	0.169119	5486.536621
1807.799129	0.097200	0.169119	5573.141602
1807.800073	0.097280	0.169119	5664.974121
1807.800973	0.097119	0.169119	5752.381348
1807.801874	0.097152	0.169119	5839.915527
1807.802784	0.097185	0.169119	5928.354004
1808.779994	1.416541	0.218816	628.943970
1808.780915	1.918839	0.218816	2396.194824
1808.781813	1.881108	0.218816	4085.430176
1808.782741	1.036194	0.218816	5047.018066
1808.783671	0.102114	0.218816	5141.984375
1808.784573	0.097145	0.218816	5229.608887
1808.785471	0.097225	0.218816	5316.917480
1808.786397	0.097244	0.218816	5406.965332
1808.787301	0.097163	0.218816	5494.800781
1808.788207	0.097207	0.218816	5582.870117
1808.789094	0.097203	0.218816	5669.089355
1808.790056	0.097368	0.218816	5762.757324
1808.790958	0.097214	0.218816	5850.444824
1808.791850	0.097222	0.218816	5937.166504
1809.796447	1.429676	0.176196	649.073120
1809.797359	1.919030	0.176196	2399.228027
1809.798271	1.880526	0.176196	4114.267578
1809.799176	1.039424	0.176196	5054.946289
1809.800114	0.102261	0.176196	5150.866699
1809.801023	0.097119	0.176196	5239.147949
1809.801920	0.097156	0.176196	5326.296875
1809.802832	0.097214	0.176196	5414.956543
1809.803729	0.097174	0.176196	5502.121582
1809.804681	0.097148	0.176196	5594.606934
1809.805600	0.097236	0.176196	5683.967285
1809.806495	0.097192	0.176196	5770.954590
1809.807455	0.097251	0.176196	5864.315430
1809.808355	0.097203	0.176196	5951.798340
1810.798413	1.398274	0.184777	616.638794
1810.799309	1.917953	0.184777	2335.124512
1810.800277	1.879483	0.184777	4154.463867
1810.801189	0.993746	0.184777	5060.760742
1810.802080	0.102070	0.184777	5151.705566
1810.803002	0.097145	0.184777	5241.272949
1810.803924	0.097126	0.184777	5330.823730
1810.804827	0.097115	0.184777	5418.519043
1810.805717	0.097211	0.184777	5505.036621
1810.806658	0.097258	0.184777	5596.556641
1810.807562	0.097251	0.184777	5684.471680
1810.808459	0.097192	0.184777	5771.653320
1810.809342	0.097181	0.184777	5857.464355
1810.810281	0.097211	0.184777	5948.745117
1811.806938	1.418361	0.160712	629.752075
1811.807845	1.918744	0.160712	2370.052734
1811.808739	1.881973	0.160712	4052.536133
1811.809705	1.006670	0.160712	5024.979492
1811.810617	0.102382	0.160712	5118.351562
1811.811504	0.097097	0.160712	5204.476562
1811.812430	0.097273	0.160712	5294.551270
1811.813347	0.097266	0.160712	5383.743652
1811.814256	0.097192	0.160712	5472.091309
1811.815147	0.097185	0.160712	5558.683105
1811.816071	0.097255	0.160712	5648.546387
1811.816967	0.097214	0.160712	5735.650391
1811.817871	0.097141	0.160712	5823.465820
1811.818757	0.097229	0.160712	5909.610840
1812.830673	1.406012	0.164132	624.269287
1812.831574	1.918814	0.164132	2353.120361
1812.832518	1.880614	0.164132	4128.419922
1812.833449	0.989462	0.164132	5049.608887
1812.834350	0.101755	0.164132	5141.290527
1812.835236	0.097108	0.164132	5227.328125
1812.836183	0.097266	0.164132	5319.438477
1812.837079	0.097167	0.164132	5406.500000
1812.837984	0.097163	0.164132	5494.432617
1812.838873	0.097218	0.164132	5580.859375
1812.839811	0.097222	0.164132	5672.053223
1812.840721	0.097163	0.164132	5760.471680
1812.841619	0.097200	0.164132	5847.756836
1812.842555	0.097255	0.164132	5938.787109
1813.817051	1.414358	0.171898	639.289795
1813.817945	1.918788	0.171898	2354.686035
1813.818866	1.881035	0.171898	4087.119629
1813.819819	0.991073	0.171898	5031.612305
1813.820730	0.101646	0.171898	5124.211426
1813.821630	0.097207	0.171898	5211.697754
1813.822555	0.097200	0.171898	5301.607422
1813.823455	0.097258	0.171898	5389.139648
1813.824355	0.097203	0.171898	5476.622559
1813.825243	0.097244	0.171898	5562.975098
1813.826179	0.097196	0.171898	5653.950684
1813.827078	0.097178	0.171898	5741.313477
1813.827974	0.097126	0.171898	5828.338867
1813.828894	0.097174	0.171898	5917.739258
1814.842703	1.405895	0.178166	618.593689
1814.843679	1.918791	0.178166	2491.334229
1814.844575	1.878483	0.178166	4174.454590
1814.845476	0.994808	0.178166	5070.776855
1814.846406	0.102305	0.178166	5165.920410
1814.847322	0.097141	0.178166	5254.901855
1814.848226	0.097159	0.178166	5342.733887
1814.849113	0.097255	0.178166	5428.998535
1814.850044	0.097233	0.178166	5519.521973
1814.850957	0.097167	0.178166	5608.235352
1814.851877	0.097192	0.178166	5697.652344
1814.852767	0.097247	0.178166	5784.202637
1814.853717	0.097170	0.178166	5876.514648
1814.854612	0.097192	0.178166	5963.501953
1815.830877	1.420726	0.158053	642.168274
1815.831779	1.918759	0.158053	2372.888428
1815.832736	1.879504	0.158053	4171.574219
1815.833656	0.967939	0.158053	5062.078613
1815.834550	0.101733	0.158053	5153.028320
1815.835434	0.097134	0.158053	5238.894531
1815.836372	0.097225	0.158053	5330.091797
1815.837282	0.097170	0.158053	5418.517090
1815.838174	0.097211	0.158053	5505.229004
1815.839087	0.097214	0.158053	5593.985840
1815.840017	0.097207	0.158053	5684.388184
1815.840921	0.097159	0.158053	5772.220215
1815.841811	0.097167	0.158053	5858.698730
1815.842753	0.097280	0.158053	5950.336914
1816.845786	1.423846	0.193877	635.035461
1816.846701	1.918660	0.193877	2390.609131
1816.847610	1.880420	0.193877	4099.910645
1816.848547	1.016730	0.193877	5052.586426
1816.849476	0.101001	0.193877	5146.416504
1816.850383	0.097075	0.193877	5234.463867
1816.851283	0.097163	0.193877	5321.910645
1816.852217	0.097200	0.193877	5412.695312
1816.853119	0.097196	0.193877	5500.366211
1816.854014	0.097174	0.193877	5587.336914
1816.854898	0.097189	0.193877	5673.251953
1816.855827	0.097258	0.193877	5763.604980
1816.856736	0.097203	0.193877	5851.962891
1816.857634	0.097240	0.193877	5939.284180
1817.859668	1.417493	0.155652	632.201721
1817.860571	1.918564	0.155652	2364.665527
1817.861466	1.881687	0.155652	4048.775391
1817.862437	0.995446	0.155652	5015.353027
1817.863342	0.102404	0.155652	5108.028320
1817.864234	0.097108	0.155652	5194.648926
1817.865156	0.097148	0.155652	5284.219727
1817.866084	0.097251	0.155652	5374.468750
1817.866992	0.097097	0.155652	5462.632812
1817.867888	0.097134	0.155652	5549.664551
1817.868828	0.097211	0.155652	5641.042480
1817.869732	0.097196	0.155652	5728.907715
1817.870635	0.097174	0.155652	5816.655762
1817.871523	0.097178	0.155652	5902.949707
1818.858059	1.407089	0.205732	621.933167
1818.859023	1.919073	0.205732	2471.919922
1818.859944	1.877472	0.205732	4201.071289
1818.860846	0.963966	0.205732	5070.568848
1818.861778	0.101898	0.205732	5165.538086
1818.862682	0.097218	0.205732	5253.423340
1818.863590	0.097174	0.205732	5341.657227
1818.864481	0.097218	0.205732	5428.278320
1818.865413	0.097222	0.205732	5518.889160
1818.866318	0.097178	0.205732	5606.834961
1818.867223	0.097273	0.205732	5694.867187
1818.868114	0.097244	0.205732	5781.511230
1818.869074	0.097273	0.205732	5874.893066
1818.869980	0.097211	0.205732	5962.965820
1819.883351	1.413047	0.165268	633.044983
1819.884251	1.918433	0.165268	2359.634521
1819.885146	1.881394	0.165268	4043.481934
1819.886119	0.998243	0.165268	5014.772949
1819.887012	0.102411	0.165268	5106.226074
1819.887900	0.096973	0.165268	5192.337891
1819.888848	0.097017	0.165268	5284.309570
1819.889749	0.097013	0.165268	5371.718262
1819.890651	0.096943	0.165268	5459.161133
1819.891537	0.096991	0.165268	5545.095215
1819.892477	0.097126	0.165268	5636.394043
1819.893388	0.097017	0.165268	5724.776367
1819.894285	0.097039	0.165268	5811.819824
1819.895170	0.097050	0.165268	5897.708496
1820.867916	1.403954	0.200354	614.931763
1820.868864	1.918627	0.200354	2433.789795
1820.869792	1.878150	0.200354	4176.712402
1820.870701	0.972609	0.200354	5060.813477
1820.871645	0.101646	0.200354	5156.766602
1820.872549	0.097028	0.200354	5244.479492
1820.873456	0.097002	0.200354	5332.460449
1820.874349	0.096991	0.200354	5419.073242
1820.875310	0.097094	0.200354	5512.379883
1820.876210	0.097075	0.200354	5599.747559
1820.877108	0.097090	0.200354	5686.934082
1820.877995	0.097086	0.200354	5773.049316
1820.878935	0.097159	0.200354	5864.379395
1820.879849	0.097072	0.200354	5953.102539
1821.899983	1.401160	0.170859	622.114868
1821.900879	1.917894	0.170859	2340.548340
1821.901832	1.879728	0.170859	4131.928711
1821.902749	1.007157	0.170859	5055.491699
1821.903640	0.102700	0.170859	5146.997559
1821.904527	0.096918	0.170859	5232.963379
1821.905471	0.097134	0.170859	5324.657715
1821.906374	0.097009	0.170859	5412.257324
1821.907276	0.097101	0.170859	5499.842285
1821.908205	0.097101	0.170859	5590.048828
1821.909107	0.097123	0.170859	5677.653809
1821.909999	0.097046	0.170859	5764.218750
1821.910889	0.097035	0.170859	5850.579590
1821.911833	0.097211	0.170859	5942.346680
1822.880975	1.401145	0.197329	615.102661
1822.881931	1.918748	0.197329	2449.425293
1822.882842	1.878655	0.197329	4160.879883
1822.883747	0.998419	0.197329	5064.449219
1822.884680	0.102360	0.197329	5159.950684
1822.885587	0.097013	0.197329	5247.941406
1822.886502	0.097031	0.197329	5336.725098
1822.887391	0.097086	0.197329	5423.034668
1822.888328	0.097112	0.197329	5514.028320
1822.889237	0.096987	0.197329	5602.189941
1822.890144	0.097108	0.197329	5690.267090
1822.891031	0.097050	0.197329	5776.350098
1822.891980	0.097137	0.197329	5868.533691
1822.892883	0.096984	0.197329	5956.109863
1823.910739	1.400706	0.182557	614.909729
1823.911636	1.918063	0.182557	2335.411865
1823.912592	1.878907	0.182557	4131.647461
1823.913516	0.981244	0.182557	5038.316895
1823.914437	0.100803	0.182557	5131.156738
1823.915332	0.097009	0.182557	5217.979980
1823.916282	0.097002	0.182557	5310.131836
1823.917173	0.096995	0.182557	5396.554199
1823.918062	0.097094	0.182557	5482.870117
1823.918998	0.097108	0.182557	5573.763184
1823.919897	0.097013	0.182557	5660.978027
1823.920812	0.097006	0.182557	5749.738281
1823.921703	0.096973	0.182557	5836.141113
1823.922641	0.097068	0.182557	5927.190918
1824.901630	1.419064	0.205797	698.179321
1824.902548	1.918766	0.205797	2459.606445
1824.903466	1.877399	0.205797	4183.058594
1824.904363	0.974337	0.205797	5057.039062
1824.905316	0.100107	0.205797	5152.441406
1824.906225	0.097075	0.205797	5240.682617
1824.907125	0.097050	0.205797	5328.027344
1824.908011	0.097112	0.205797	5414.068359
1824.908937	0.097068	0.205797	5503.953125
1824.909841	0.097028	0.205797	5591.666016
1824.910733	0.097094	0.205797	5678.273437
1824.911665	0.097097	0.205797	5768.768066
1824.912579	0.097101	0.205797	5857.518066
1824.913477	0.097152	0.205797	5944.760742
1825.917813	1.418917	0.192789	683.918091
1825.918729	1.918912	0.192789	2441.641846
1825.919632	1.879156	0.192789	4138.520020
1825.920531	1.022395	0.192789	5057.653320
1825.921488	0.100836	0.192789	5154.153320
1825.922379	0.096995	0.192789	5240.575684
1825.923281	0.097050	0.192789	5328.114258
1825.924170	0.097075	0.192789	5414.414062
1825.925123	0.097053	0.192789	5506.905762
1825.926030	0.096987	0.192789	5594.873047
1825.926929	0.097031	0.192789	5682.104004
1825.927856	0.097083	0.192789	5772.099609
1825.928756	0.097042	0.192789	5859.437500
1825.929656	0.096969	0.192789	5946.709473
1826.917061	1.389928	0.203025	607.398499
1826.918035	1.918517	0.203025	2476.033936
1826.918952	1.877278	0.203025	4197.497559
1826.919862	0.953218	0.203025	5064.925781
1826.920748	0.101543	0.203025	5154.893066
1826.921703	0.097108	0.203025	5247.631348
1826.922616	0.097068	0.203025	5336.254395
1826.923507	0.097057	0.203025	5422.731934
1826.924433	0.097211	0.203025	5512.749023
1826.925341	0.097152	0.203025	5600.962891
1826.926244	0.097126	0.203025	5688.667969
1826.927134	0.097046	0.203025	5775.039062
1826.928094	0.097137	0.203025	5868.291016
1826.928989	0.097090	0.203025	5955.186523
1827.926346	1.399156	0.187500	617.028015
1827.927240	1.917023	0.187500	2330.846436
1827.928239	1.877055	0.187500	4206.023926
1827.929170	0.897978	0.187500	5042.041992
1827.930058	0.100349	0.187500	5131.151855
1827.930992	0.097064	0.187500	5221.810059
1827.931888	0.097094	0.187500	5308.805664
1827.932791	0.097006	0.187500	5396.401855
1827.933680	0.097126	0.187500	5482.747070
1827.934614	0.097057	0.187500	5573.398437
1827.935518	0.097057	0.187500	5661.137695
1827.936423	0.097035	0.187500	5748.954102
1827.937313	0.097130	0.187500	5835.399902
1827.938259	0.097002	0.187500	5927.163574
1828.935898	1.423828	0.191311	639.298828
1828.936805	1.918506	0.191311	2379.383545
1828.937699	1.881544	0.191311	4061.483887
1828.938667	0.982621	0.191311	5012.660645
1828.939570	0.101759	0.191311	5104.548828
1828.940494	0.096925	0.191311	5194.107422
1828.941385	0.097137	0.191311	5280.656738
1828.942324	0.097061	0.191311	5371.796387
1828.943216	0.097061	0.191311	5458.374512
1828.944106	0.097072	0.191311	5544.768066
1828.945035	0.097112	0.191311	5634.984863
1828.945928	0.097002	0.191311	5721.607422
1828.946860	0.097053	0.191311	5812.061035
1828.947748	0.097072	0.191311	5898.260742
1829.939914	1.392891	0.188088	605.907471
1829.940850	1.917825	0.188088	2400.991455
1829.941762	1.880358	0.188088	4115.877930
1829.942670	1.042745	0.188088	5062.690918
1829.943555	0.104015	0.188088	5154.744141
1829.944501	0.097039	0.188088	5246.542480
1829.945413	0.097104	0.188088	5335.101562
1829.946315	0.097046	0.188088	5422.636719
1829.947234	0.097035	0.188088	5511.812012
1829.948151	0.097094	0.188088	5600.846680
1829.949060	0.097009	0.188088	5689.028320
1829.949960	0.097112	0.188088	5776.428711
1829.950893	0.097222	0.188088	5867.136719
1829.951793	0.097002	0.188088	5954.438477
1830.956114	1.401984	0.202622	619.676758
1830.957009	1.917239	0.202622	2335.605469
1830.957973	1.879241	0.202622	4147.193848
1830.958901	0.982588	0.202622	5059.035156
1830.959789	0.101667	0.202622	5149.315918
1830.960716	0.097042	0.202622	5239.273926
1830.961619	0.097009	0.202622	5326.873535
1830.962516	0.097061	0.202622	5413.937012
1830.963404	0.096998	0.202622	5500.071289
1830.964356	0.097145	0.202622	5592.553223
1830.965259	0.097083	0.202622	5680.218750
1830.966153	0.097028	0.202622	5766.961426
1830.967040	0.097002	0.202622	5853.001953
1830.967984	0.097090	0.202622	5944.654785
1831.954896	1.406876	0.199206	621.839294
1831.955797	1.918495	0.199206	2350.403320
1831.956692	1.881954	0.199206	4034.752441
1831.957666	1.002437	0.199206	5011.125488
1831.958574	0.101968	0.199206	5103.712402
1831.959470	0.097064	0.199206	5190.682129
1831.960391	0.097057	0.199206	5280.071289
1831.961301	0.097115	0.199206	5368.446289
1831.962215	0.097064	0.199206	5457.163086
1831.963105	0.097072	0.199206	5543.556641
1831.964034	0.097174	0.199206	5633.831543
1831.964942	0.097108	0.199206	5722.005859
1831.965843	0.097083	0.199206	5809.477051
1831.966732	0.097163	0.199206	5895.854980
1832.968410	1.419598	0.210192	635.980103
1832.969311	1.918561	0.210192	2364.603516
1832.970210	1.881812	0.210192	4056.352051
1832.971164	1.014796	0.210192	5024.467773
1832.972082	0.101990	0.210192	5118.094238
1832.972979	0.096991	0.210192	5205.095215
1832.973867	0.097061	0.210192	5291.285156
1832.974822	0.097064	0.210192	5383.981445
1832.975724	0.096998	0.210192	5471.474121
1832.976614	0.097086	0.210192	5557.880859
1832.977562	0.097126	0.210192	5649.956543
1832.978467	0.097079	0.210192	5737.812988
1832.979358	0.097104	0.210192	5824.333008
1832.980250	0.097137	0.210192	5910.979492
1833.965656	1.403104	0.207130	625.784546
1833.966548	1.917763	0.207130	2336.428711
1833.967490	1.879691	0.207130	4107.097656
1833.968417	1.007673	0.207130	5041.210937
1833.969311	0.102316	0.207130	5132.681152
1833.970244	0.097013	0.207130	5223.194336
1833.971160	0.097086	0.207130	5312.125488
1833.972068	0.097031	0.207130	5400.229980
1833.972966	0.097086	0.207130	5487.413574
1833.973919	0.097130	0.207130	5579.978516
1833.974823	0.097101	0.207130	5667.757812
1833.975721	0.097013	0.207130	5754.875488
1833.976604	0.097079	0.207130	5840.596191
1833.977531	0.097178	0.207130	5930.680176
1834.978891	1.394348	0.215336	612.118835
1834.979782	1.917495	0.215336	2320.606934
1834.980740	1.879091	0.215336	4120.775879
1834.981681	0.970210	0.215336	5033.743652
1834.982578	0.101279	0.215336	5124.591309
1834.983518	0.096991	0.215336	5215.762695
1834.984423	0.097086	0.215336	5303.625488
1834.985316	0.097035	0.215336	5390.277832
1834.986207	0.097009	0.215336	5476.712891
1834.987148	0.097079	0.215336	5568.063965
1834.988047	0.097009	0.215336	5655.275391
1834.988943	0.097046	0.215336	5742.228516
1834.989828	0.097009	0.215336	5828.081543
1834.990760	0.097072	0.215336	5918.552246
1835.977196	1.443666	0.201631	666.973572
1835.978113	1.918147	0.201631	2425.914551
1835.979013	1.879797	0.201631	4117.732422
1835.979942	1.003528	0.201631	5050.009766
1835.980874	0.100781	0.201631	5143.937988
1835.981785	0.096995	0.201631	5232.300293
1835.982682	0.097079	0.201631	5319.379883
1835.983610	0.097112	0.201631	5409.499512
1835.984512	0.097009	0.201631	5497.001953
1835.985408	0.097031	0.201631	5583.941895
1835.986295	0.097057	0.201631	5670.031250
1835.987234	0.097174	0.201631	5761.277832
1835.988134	0.097046	0.201631	5848.619141
1835.989033	0.096995	0.201631	5935.817383
1836.991589	1.430065	0.212270	647.819275
1836.992487	1.918055	0.212270	2370.233154
1836.993378	1.881822	0.212270	4046.937012
1836.994339	1.034286	0.212270	5040.885742
1836.995247	0.102697	0.212270	5134.134277
1836.996160	0.096987	0.212270	5222.683594
1836.997055	0.097006	0.212270	5309.503418
1836.997998	0.097108	0.212270	5401.076172
1836.998920	0.097068	0.212270	5490.572754
1836.999836	0.097035	0.212270	5579.456543
1837.000725	0.097108	0.212270	5665.785645
1837.001673	0.097057	0.212270	5757.795410
1837.002567	0.097028	0.212270	5844.538086
1837.003454	0.097057	0.212270	5930.627441
1837.992274	1.404364	0.198916	622.133240
1837.993173	1.917788	0.198916	2346.224854
1837.994139	1.878373	0.198916	4160.732910
1837.995063	0.964951	0.198916	5052.347656
1837.995953	0.101418	0.198916	5142.609863
1837.996858	0.096991	0.198916	5230.386719
1837.997790	0.097068	0.198916	5320.854004
1837.998687	0.097013	0.198916	5407.874512
1837.999572	0.097053	0.198916	5493.766602
1838.000516	0.097072	0.198916	5585.402344
1838.001425	0.097017	0.198916	5673.590332
1838.002330	0.097031	0.198916	5761.403809
1838.003221	0.097028	0.198916	5847.855469
1838.004177	0.097101	0.198916	5940.684082
1839.005272	1.412142	0.204012	625.579041
1839.006167	1.917550	0.204012	2341.786377
1839.007127	1.879109	0.204012	4145.730957
1839.008055	0.972224	0.204012	5047.955078
1839.008946	0.101605	0.204012	5138.485352
1839.009878	0.097017	0.204012	5228.904785
1839.010783	0.097141	0.204012	5316.817383
1839.011683	0.097115	0.204012	5404.221191
1839.012574	0.097061	0.204012	5490.702148
1839.013507	0.097181	0.204012	5581.372559
1839.014413	0.097123	0.204012	5669.365723
1839.015313	0.097035	0.204012	5756.697266
1839.016202	0.097083	0.204012	5843.003418
1839.017149	0.097112	0.204012	5934.968262
1840.009028	1.388434	0.194996	598.414978
1840.009996	1.918140	0.194996	2455.174316
1840.010919	1.877355	0.194996	4187.972656
1840.011834	0.948373	0.194996	5055.733887
1840.012720	0.101407	0.194996	5145.581055
1840.013674	0.097017	0.194996	5238.134766
1840.014579	0.097075	0.194996	5325.987793
1840.015480	0.097006	0.194996	5413.389648
1840.016403	0.097086	0.194996	5503.000000
1840.017300	0.097061	0.194996	5590.063477
1840.018198	0.097163	0.194996	5677.315918
1840.019080	0.097090	0.194996	5762.949219
1840.020001	0.097134	0.194996	5852.409668
1840.020902	0.097042	0.194996	5939.844727
1841.015239	1.390254	0.200826	601.979919
1841.016180	1.916777	0.200826	2405.667480
1841.017116	1.878182	0.200826	4163.646484
1841.018036	0.967881	0.200826	5054.096680
1841.018933	0.101382	0.200826	5145.036133
1841.019865	0.097039	0.200826	5235.476074
1841.020777	0.097046	0.200826	5323.981934
1841.021678	0.097009	0.200826	5411.387207
1841.022569	0.097075	0.200826	5497.881348
1841.023524	0.097181	0.200826	5590.689453
1841.024424	0.097053	0.200826	5678.037109
1841.025315	0.097108	0.200826	5764.560547
1841.026247	0.097174	0.200826	5855.126953
1841.027152	0.097185	0.200826	5943.079590
1842.024915	1.407781	0.195548	623.646851
1842.025810	1.917535	0.195548	2339.841064
1842.026775	1.878893	0.195548	4152.972656
1842.027701	0.973001	0.195548	5053.971191
1842.028591	0.101627	0.195548	5144.419434
1842.029519	0.097053	0.195548	5234.484863
1842.030430	0.097130	0.195548	5322.970215
1842.031336	0.097042	0.195548	5410.890625
1842.032223	0.097108	0.195548	5497.025391
1842.033161	0.097159	0.195548	5588.161133
1842.034061	0.097134	0.195548	5675.581543
1842.034964	0.097042	0.195548	5763.210449
1842.035849	0.097090	0.195548	5849.134766
1842.036788	0.097130	0.195548	5940.339844
1843.020656	1.458179	0.207416	682.427612
1843.021570	1.918260	0.207416	2435.717773
1843.022499	1.877937	0.207416	4180.321289
1843.023399	0.973436	0.207416	5056.414062
1843.024353	0.100096	0.207416	5151.906250
1843.025259	0.096943	0.207416	5239.736816
1843.026151	0.097064	0.207416	5326.317871
1843.027090	0.097068	0.207416	5417.464844
1843.028005	0.097101	0.207416	5506.312012
1843.028925	0.097079	0.207416	5595.624512
1843.029812	0.097064	0.207416	5681.720703
1843.030743	0.097075	0.207416	5772.097656
1843.031650	0.097075	0.207416	5860.145020
1843.032540	0.097156	0.207416	5946.613770
1844.038602	1.394963	0.192302	605.414124
1844.039542	1.917872	0.192302	2408.213867
1844.040454	1.879457	0.192302	4122.278320
1844.041368	1.023871	0.192302	5058.096191
1844.042252	0.103550	0.192302	5149.634277
1844.043204	0.096965	0.192302	5241.945312
1844.044105	0.097050	0.192302	5329.387207
1844.045006	0.097083	0.192302	5416.858398
1844.045937	0.097108	0.192302	5507.266113
1844.046844	0.097170	0.192302	5595.399902
1844.047742	0.097061	0.192302	5682.560059
1844.048631	0.097068	0.192302	5768.853516
1844.049583	0.097094	0.192302	5861.286621
1844.050491	0.097112	0.192302	5949.464355
1845.031236	1.394004	0.226925	609.179687
1845.032134	1.917385	0.226925	2330.991699
1845.033080	1.879530	0.226925	4109.026855
1845.034015	0.997844	0.226925	5042.011230
1845.034917	0.101781	0.226925	5133.817871
1845.035849	0.097094	0.226925	5224.309082
1845.036755	0.097094	0.226925	5312.275879
1845.037648	0.097046	0.226925	5398.937988
1845.038535	0.097108	0.226925	5485.072754
1845.039478	0.097126	0.226925	5576.663086
1845.040381	0.097075	0.226925	5664.321777
1845.041277	0.097042	0.226925	5751.271484
1845.042166	0.097108	0.226925	5837.600586
1845.043103	0.097141	0.226925	5928.621582
1846.054984	1.396296	0.186424	608.785217
1846.055939	1.917832	0.186424	2440.314941
1846.056854	1.878882	0.186424	4159.492187
1846.057758	1.003341	0.186424	5066.512695
1846.058646	0.102755	0.186424	5157.759277
1846.059582	0.097013	0.186424	5248.563477
1846.060492	0.097024	0.186424	5336.855469
1846.061389	0.097072	0.186424	5423.928711
1846.062306	0.097064	0.186424	5512.936523
1846.063229	0.097112	0.186424	5602.570801
1846.064140	0.096998	0.186424	5690.936035
1846.065036	0.097031	0.186424	5777.875977
1846.065980	0.097068	0.186424	5869.507812
1846.066883	0.097086	0.186424	5957.176758
1847.046873	1.423546	0.238954	640.595764
1847.047776	1.918440	0.238954	2372.947021
1847.048668	1.880966	0.238954	4050.768555
1847.049626	1.015353	0.238954	5023.476562
1847.050534	0.102378	0.238954	5116.435547
1847.051432	0.096973	0.238954	5203.517090
1847.052373	0.097115	0.238954	5294.902832
1847.053282	0.097064	0.238954	5383.134277
1847.054188	0.097061	0.238954	5471.071289
1847.055076	0.097002	0.238954	5557.208984
1847.056022	0.097141	0.238954	5649.104492
1847.056927	0.097163	0.238954	5737.037109
1847.057824	0.097064	0.238954	5824.103516
1847.058710	0.097053	0.238954	5910.092773
1848.069975	1.419580	0.190465	630.293579
1848.070885	1.918118	0.190465	2375.780518
1848.071787	1.880966	0.190465	4072.411621
1848.072730	1.030492	0.190465	5044.165527
1848.073646	0.101949	0.190465	5137.551270
1848.074546	0.096958	0.190465	5224.813477
1848.075434	0.097108	0.190465	5311.045410
1848.076384	0.097123	0.190465	5403.312012
1848.077298	0.097061	0.190465	5492.025391
1848.078197	0.097061	0.190465	5579.282715
1848.079081	0.097031	0.190465	5665.058105
1848.080016	0.097104	0.190465	5755.850586
1848.080923	0.097039	0.190465	5843.864746
1848.081811	0.097094	0.190465	5930.083984
1849.063521	1.428750	0.247345	655.796265
1849.064420	1.918326	0.247345	2380.371826
1849.065345	1.880219	0.247345	4119.574219
1849.066271	1.005256	0.247345	5050.441406
1849.067177	0.102056	0.247345	5142.903809
1849.068072	0.096947	0.247345	5229.671387
1849.069004	0.097152	0.247345	5320.217285
1849.069905	0.097061	0.247345	5407.668945
1849.070811	0.097097	0.247345	5495.639160
1849.071698	0.097053	0.247345	5581.725586
1849.072651	0.097086	0.247345	5674.248535
1849.073557	0.097083	0.247345	5762.205078
1849.074448	0.097035	0.247345	5848.663086
1849.075371	0.097104	0.247345	5938.290527
1850.084297	1.385911	0.186384	597.327454
1850.085229	1.917111	0.186384	2384.074463
1850.086161	1.879171	0.186384	4135.461914
1850.087089	0.987777	0.186384	5052.119141
1850.087981	0.102169	0.186384	5143.253906
1850.088917	0.097020	0.186384	5234.064941
1850.089821	0.097050	0.186384	5321.797852
1850.090714	0.097112	0.186384	5408.518555
1850.091601	0.097017	0.186384	5494.572266
1850.092541	0.097090	0.186384	5585.836914
1850.093451	0.097064	0.186384	5674.165527
1850.094348	0.097017	0.186384	5761.189453
1850.095268	0.097053	0.186384	5850.478516
1850.096185	0.097097	0.186384	5939.516602
1851.080528	1.395106	0.234885	612.451599
1851.081423	1.917649	0.234885	2328.747314
1851.082386	1.879080	0.234885	4138.300781
1851.083312	0.985210	0.234885	5050.604980
1851.084208	0.101971	0.234885	5141.971191
1851.085122	0.097035	0.234885	5230.661133
1851.086035	0.097163	0.234885	5319.371094
1851.086944	0.097050	0.234885	5407.589355
1851.087832	0.097061	0.234885	5493.779297
1851.088761	0.097178	0.234885	5584.057617
1851.089675	0.097170	0.234885	5672.871582
1851.090581	0.097134	0.234885	5760.875000
1851.091471	0.097075	0.234885	5847.271973
1851.092423	0.097170	0.234885	5939.778320
1852.092804	1.446826	0.179153	724.859863
1852.093721	1.918564	0.179153	2484.183594
1852.094652	1.876047	0.179153	4230.783691
1852.095556	0.924675	0.179153	5066.689941
1852.096501	0.099316	0.179153	5160.543945
1852.097401	0.096995	0.179153	5247.838867
1852.098291	0.097181	0.179153	5334.330078
1852.099196	0.097163	0.179153	5422.262695
1852.100140	0.097050	0.179153	5513.877441
1852.101043	0.097057	0.179153	5601.520020
1852.101935	0.097053	0.179153	5688.091309
1852.102857	0.097108	0.179153	5777.625000
1852.103765	0.097104	0.179153	5865.795898
1852.104692	0.097057	0.179153	5955.767578
1853.102928	1.405481	0.209454	619.817139
1853.103830	1.918345	0.209454	2350.164062
1853.104726	1.881464	0.209454	4035.955322
1853.105693	1.007519	0.209454	5010.226562
1853.106608	0.102261	0.209454	5103.794922
1853.107499	0.097075	0.209454	5190.289062
1853.108425	0.097126	0.209454	5280.228027
1853.109326	0.097200	0.209454	5367.805176
1853.110229	0.097053	0.209454	5455.444336
1853.111117	0.097126	0.209454	5541.692871
1853.112057	0.097196	0.209454	5633.057129
1853.112963	0.097163	0.209454	5721.086914
1853.113866	0.097126	0.209454	5808.791992
1853.114758	0.097064	0.209454	5895.373047
1854.097869	1.399325	0.182114	615.702942
1854.098821	1.918381	0.182114	2442.001953
1854.099741	1.878292	0.182114	4170.030762
1854.100646	0.992736	0.182114	5068.456543
1854.101570	0.102056	0.182114	5162.755859
1854.102482	0.097090	0.182114	5251.301758
1854.103388	0.097006	0.182114	5339.188965
1854.104284	0.097072	0.182114	5426.165039
1854.105209	0.097101	0.182114	5515.983398
1854.106118	0.097061	0.182114	5604.211426
1854.107026	0.097057	0.182114	5692.338867
1854.107912	0.097079	0.182114	5778.350586
1854.108849	0.097156	0.182114	5869.385742
1854.109755	0.096987	0.182114	5957.256348
1855.120084	1.396699	0.204278	621.531128
1855.120976	1.917902	0.204278	2332.299316
1855.121919	1.879611	0.204278	4104.771973
1855.122846	1.004553	0.204278	5035.992676
1855.123748	0.102004	0.204278	5128.000488
1855.124637	0.096973	0.204278	5214.208984
1855.125581	0.097112	0.204278	5305.882324
1855.126489	0.097094	0.204278	5394.043457
1855.127389	0.097061	0.204278	5481.397949
1855.128332	0.097181	0.204278	5573.040039
1855.129229	0.097134	0.204278	5660.168945
1855.130128	0.097031	0.204278	5747.399902
1855.131017	0.097094	0.204278	5833.715820
1855.131948	0.097203	0.204278	5924.211914
1856.111078	1.433361	0.194417	669.379395
1856.111987	1.918931	0.194417	2413.687256
1856.112947	1.877432	0.194417	4216.021484
1856.113859	0.919991	0.194417	5055.053711
1856.114789	0.099683	0.194417	5147.758789
1856.115676	0.096980	0.194417	5233.780273
1856.116626	0.097072	0.194417	5325.998047
1856.117548	0.097046	0.194417	5415.474609
1856.118436	0.097079	0.194417	5501.680664
1856.119381	0.097104	0.194417	5593.444336
1856.120279	0.097057	0.194417	5680.601562
1856.121187	0.097090	0.194417	5768.759277
1856.122083	0.097152	0.194417	5855.807617
1856.123048	0.097083	0.194417	5949.492187
1857.134854	1.469843	0.201269	736.391113
1857.135773	1.918469	0.201269	2499.464355
1857.136678	1.877153	0.201269	4198.288086
1857.137579	0.965010	0.201269	5067.761719
1857.138535	0.099928	0.201269	5163.292969
1857.139436	0.096998	0.201269	5250.688477
1857.140337	0.097094	0.201269	5338.169922
1857.141269	0.097112	0.201269	5428.678223
1857.142178	0.097192	0.201269	5517.025879
1857.143088	0.097104	0.201269	5605.391113
1857.143984	0.097137	0.201269	5692.426270
1857.144925	0.097104	0.201269	5783.801758
1857.145823	0.097108	0.201269	5871.004883
1857.146721	0.097115	0.201269	5958.214355
1858.133829	1.391235	0.199553	603.796143
1858.134799	1.917393	0.199553	2463.666992
1858.135706	1.877963	0.199553	4166.979004
1858.136618	0.975114	0.199553	5056.282715
1858.137509	0.101957	0.199553	5147.125977
1858.138461	0.097061	0.199553	5239.527832
1858.139368	0.097156	0.199553	5327.647949
1858.140268	0.097174	0.199553	5415.104492
1858.141193	0.097075	0.199553	5504.898926
1858.142104	0.097174	0.199553	5593.424316
1858.143014	0.097115	0.199553	5681.799316
1858.143907	0.097115	0.199553	5768.523437
1858.144844	0.097148	0.199553	5859.551758
1858.145741	0.097086	0.199553	5946.638184
1859.147903	1.447892	0.209704	708.019104
1859.148827	1.918436	0.209704	2480.654053
1859.149732	1.877505	0.209704	4179.795898
1859.150633	0.980402	0.209704	5063.137695
1859.151580	0.099866	0.209704	5157.710449
1859.152473	0.096918	0.209704	5244.257812
1859.153374	0.097072	0.209704	5331.719238
1859.154276	0.097083	0.209704	5419.287598
1859.155205	0.097178	0.209704	5509.565918
1859.156109	0.097079	0.209704	5597.325195
1859.156998	0.097061	0.209704	5683.611816
1859.157931	0.097061	0.209704	5774.169434
1859.158840	0.097050	0.209704	5862.387695
1859.159744	0.097053	0.209704	5950.124023
1860.156996	1.389891	0.204544	601.822998
1860.157943	1.917891	0.204544	2418.065430
1860.158857	1.878926	0.204544	4135.403320
1860.159773	1.002063	0.204544	5053.292969
1860.160659	0.102700	0.204544	5144.285156
1860.161609	0.097075	0.204544	5236.506836
1860.162520	0.097061	0.204544	5324.929199
1860.163410	0.097006	0.204544	5411.264160
1860.164344	0.097050	0.204544	5501.908691
1860.165249	0.097163	0.204544	5589.841309
1860.166144	0.097013	0.204544	5676.667969
1860.167062	0.097061	0.204544	5765.769531
1860.167982	0.097053	0.204544	5855.058594
1860.168873	0.097013	0.204544	5941.497070
1861.158217	1.408367	0.216238	615.456238
1861.159193	1.918455	0.216238	2487.867920
1861.160099	1.877563	0.216238	4188.940430
1861.160999	0.986294	0.216238	5076.604980
1861.161929	0.101960	0.216238	5171.428223
1861.162836	0.096976	0.216238	5259.385742
1861.163758	0.097035	0.216238	5348.852051
1861.164645	0.097046	0.216238	5434.931641
1861.165580	0.097148	0.216238	5525.765625
1861.166480	0.097031	0.216238	5613.093750
1861.167369	0.097086	0.216238	5699.403320
1861.168272	0.097101	0.216238	5787.085449
1861.169217	0.097090	0.216238	5878.835449
1861.170118	0.097134	0.216238	5966.353027
1862.178013	1.416163	0.190723	634.441162
1862.178934	1.917935	0.190723	2400.858887
1862.179831	1.880292	0.190723	4087.480469
1862.180777	1.012233	0.190723	5045.052734
1862.181689	0.101477	0.190723	5137.599609
1862.182599	0.097028	0.190723	5225.894531
1862.183498	0.097145	0.190723	5313.227539
1862.184438	0.097068	0.190723	5404.471191
1862.185350	0.097163	0.190723	5493.083984
1862.186259	0.097079	0.190723	5581.328613
1862.187150	0.097061	0.190723	5667.809570
1862.188102	0.097123	0.190723	5760.270508
1862.189005	0.097101	0.190723	5847.952637
1862.189894	0.097083	0.190723	5934.258789
1863.166024	1.395641	0.210634	612.686401
1863.166920	1.917451	0.210634	2330.722656
1863.167873	1.878955	0.210634	4121.367187
1863.168805	0.990176	0.210634	5044.210937
1863.169703	0.101653	0.210634	5135.495117
1863.170626	0.096969	0.210634	5224.997559
1863.171550	0.097130	0.210634	5314.745605
1863.172454	0.097017	0.210634	5402.448730
1863.173346	0.097002	0.210634	5488.974609
1863.174282	0.097192	0.210634	5579.946777
1863.175184	0.097057	0.210634	5667.492187
1863.176080	0.097039	0.210634	5754.438965
1863.176972	0.096925	0.210634	5840.895996
1863.177908	0.097108	0.210634	5931.789062
1864.195912	1.390781	0.188104	604.989868
1864.196804	1.917349	0.188104	2315.264648
1864.197770	1.879182	0.188104	4130.554687
1864.198690	0.998610	0.188104	5049.275391
1864.199579	0.102363	0.188104	5140.276367
1864.200491	0.096976	0.188104	5228.718750
1864.201407	0.097064	0.188104	5317.629395
1864.202318	0.096998	0.188104	5405.994629
1864.203212	0.097050	0.188104	5492.756836
1864.204144	0.097097	0.188104	5583.251465
1864.205052	0.097090	0.188104	5671.409180
1864.205961	0.097017	0.188104	5759.597168
1864.206849	0.097097	0.188104	5845.819336
1864.207787	0.097112	0.188104	5936.910156
1865.176394	1.399556	0.211138	608.806702
1865.177341	1.917323	0.211138	2424.511475
1865.178261	1.878237	0.211138	4152.489746
1865.179177	0.983503	0.211138	5053.378906
1865.180065	0.102045	0.211138	5143.994629
1865.181020	0.096973	0.211138	5236.603516
1865.181924	0.097068	0.211138	5324.353027
1865.182812	0.097061	0.211138	5410.542969
1865.183731	0.097115	0.211138	5499.791992
1865.184647	0.097119	0.211138	5588.752930
1865.185549	0.097068	0.211138	5676.308105
1865.186447	0.097079	0.211138	5763.484863
1865.187372	0.097159	0.211138	5853.357422
1865.188275	0.097123	0.211138	5941.059082
1866.208470	1.410469	0.179637	629.069031
1866.209371	1.918147	0.179637	2357.319580
1866.210267	1.881866	0.179637	4043.471924
1866.211247	0.979116	0.179637	5003.005859
1866.212158	0.101488	0.179637	5095.461426
1866.213061	0.096998	0.179637	5183.050781
1866.213949	0.097031	0.179637	5269.214355
1866.214897	0.097006	0.179637	5361.175781
1866.215800	0.097035	0.179637	5448.798340
1866.216690	0.097079	0.179637	5535.198730
1866.217622	0.097083	0.179637	5625.679687
1866.218532	0.097013	0.179637	5713.961426
1866.219429	0.097009	0.179637	5800.978516
1866.220361	0.096987	0.179637	5891.370605
1867.189702	1.393162	0.223646	607.418457
1867.190672	1.918623	0.223646	2468.482910
1867.191591	1.877296	0.223646	4193.718262
1867.192510	0.939437	0.223646	5057.061035
1867.193395	0.101239	0.223646	5146.657715
1867.194341	0.097064	0.223646	5238.480469
1867.195247	0.097002	0.223646	5326.364258
1867.196137	0.097031	0.223646	5412.722168
1867.197071	0.097053	0.223646	5503.370117
1867.197978	0.097086	0.223646	5591.427246
1867.198876	0.097079	0.223646	5678.604004
1867.199766	0.097072	0.223646	5764.997559
1867.200714	0.097159	0.223646	5857.104492
1867.201620	0.096998	0.223646	5944.984863
1868.219846	1.397853	0.182050	608.065979
1868.220811	1.918542	0.182050	2459.459473
1868.221731	1.877849	0.182050	4187.080566
1868.222631	0.983690	0.182050	5072.401855
1868.223562	0.101913	0.182050	5167.282715
1868.224466	0.096991	0.182050	5254.962402
1868.225369	0.096943	0.182050	5342.502441
1868.226259	0.097072	0.182050	5428.895996
1868.227197	0.097094	0.182050	5519.969727
1868.228101	0.097020	0.182050	5607.676270
1868.229001	0.097020	0.182050	5694.994629
1868.229885	0.097064	0.182050	5780.799316
1868.230824	0.097031	0.182050	5871.911621
1868.231729	0.097053	0.182050	5959.744629
1869.203142	1.401782	0.229560	611.177063
1869.204125	1.918887	0.229560	2497.442871
1869.205042	1.877055	0.229560	4218.702148
1869.205939	0.952251	0.229560	5072.871094
1869.206887	0.101151	0.229560	5168.762207
1869.207788	0.097017	0.229560	5256.174316
1869.208679	0.097061	0.229560	5342.655273
1869.209568	0.097061	0.229560	5428.941895
1869.210498	0.097130	0.229560	5519.272949
1869.211403	0.097145	0.229560	5607.188965
1869.212308	0.097075	0.229560	5695.041992
1869.213194	0.097101	0.229560	5781.073242
1869.214141	0.097196	0.229560	5873.117676
1869.215045	0.097061	0.229560	5960.860352
1870.233293	1.406832	0.186122	624.633545
1870.234270	1.918689	0.186122	2499.192627
1870.235172	1.877560	0.186122	4192.751465
1870.236066	0.982456	0.186122	5071.067383
1870.236989	0.101986	0.186122	5165.200684
1870.237929	0.096965	0.186122	5256.348145
1870.238835	0.097042	0.186122	5344.268555
1870.239724	0.097035	0.186122	5430.532715
1870.240670	0.097050	0.186122	5522.341797
1870.241590	0.097035	0.186122	5611.613770
1870.242490	0.097057	0.186122	5698.964844
1870.243380	0.097094	0.186122	5785.377930
1870.244333	0.097115	0.186122	5877.929199
1870.245237	0.097101	0.186122	5965.708496
1871.218764	1.397003	0.231199	609.093384
1871.219660	1.917012	0.231199	2326.735840
1871.220635	1.878215	0.231199	4157.996094
1871.221555	0.976824	0.231199	5056.673828
1871.222443	0.102037	0.231199	5147.283203
1871.223387	0.096991	0.231199	5238.842773
1871.224298	0.097061	0.231199	5327.265137
1871.225195	0.097028	0.231199	5414.298828
1871.226081	0.097050	0.231199	5500.284668
1871.227014	0.097126	0.231199	5590.903809
1871.227921	0.097057	0.231199	5678.934570
1871.228825	0.097053	0.231199	5766.670898
1871.229719	0.097039	0.231199	5853.423340
1871.230662	0.097057	0.231199	5944.947754
1872.246222	1.421814	0.186444	631.285400
1872.247206	1.918715	0.186444	2519.300781
1872.248120	1.876318	0.186444	4234.255859
1872.249026	0.929407	0.186444	5076.298340
1872.249954	0.100785	0.186444	5169.826660
1872.250857	0.097035	0.186444	5257.449219
1872.251750	0.097094	0.186444	5344.153809
1872.252638	0.097002	0.186444	5430.291504
1872.253580	0.097123	0.186444	5521.781250
1872.254485	0.097126	0.186444	5609.680664
1872.255388	0.097101	0.186444	5697.362793
1872.256287	0.097152	0.186444	5784.702637
1872.257220	0.097137	0.186444	5875.332031
1872.258128	0.097053	0.186444	5963.456543
1873.234650	1.419987	0.236843	638.993958
1873.235551	1.918389	0.236843	2367.462158
1873.236503	1.879043	0.236843	4156.311035
1873.237431	0.965998	0.236843	5052.757812
1873.238334	0.101180	0.236843	5144.123535
1873.239220	0.096951	0.236843	5230.021973
1873.240160	0.097064	0.236843	5321.262207
1873.241060	0.097042	0.236843	5408.600098
1873.241953	0.097035	0.236843	5495.252441
1873.242843	0.097053	0.236843	5581.629883
1873.243767	0.097094	0.236843	5671.344238
1873.244686	0.097046	0.236843	5760.529297
1873.245582	0.097028	0.236843	5847.465820
1873.246512	0.097094	0.236843	5937.762695
1874.260375	1.498689	0.194135	765.830078
1874.261295	1.918279	0.194135	2530.646484
1874.262201	1.876776	0.194135	4231.005859
1874.263098	0.928282	0.194135	5063.675293
1874.264053	0.099335	0.194135	5158.540039
1874.264957	0.096976	0.194135	5246.206543
1874.265848	0.097020	0.194135	5332.651367
1874.266780	0.097134	0.194135	5423.180176
1874.267701	0.097192	0.194135	5512.694336
1874.268595	0.097075	0.194135	5599.479492
1874.269481	0.097108	0.194135	5685.517090
1874.270435	0.097123	0.194135	5778.172363
1874.271343	0.097126	0.194135	5866.363281
1874.272242	0.097112	0.194135	5953.666992
1875.249094	1.387115	0.242801	597.846802
1875.250046	1.916715	0.242801	2422.559570
1875.250970	1.878351	0.242801	4158.155762
1875.251885	0.980200	0.242801	5055.039062
1875.252775	0.101920	0.242801	5145.748047
1875.253726	0.097094	0.242801	5238.083984
1875.254636	0.097108	0.242801	5326.452637
1875.255529	0.097079	0.242801	5413.144043
1875.256482	0.097046	0.242801	5505.628906
1875.257383	0.097050	0.242801	5593.070801
1875.258280	0.097006	0.242801	5680.084961
1875.259167	0.097108	0.242801	5766.219727
1875.260112	0.097086	0.242801	5857.966309
1875.261022	0.097072	0.242801	5946.301270
1876.274011	1.424330	0.194981	640.948425
1876.274910	1.918220	0.194981	2365.428467
1876.275803	1.880973	0.194981	4045.137207
1876.276773	1.012405	0.194981	5027.169922
1876.277677	0.102147	0.194981	5119.511230
1876.278576	0.096991	0.194981	5206.706055
1876.279513	0.097090	0.194981	5297.679199
1876.280423	0.097130	0.194981	5386.067383
1876.281323	0.097061	0.194981	5473.421875
1876.282212	0.097083	0.194981	5559.728027
1876.283160	0.097126	0.194981	5651.803711
1876.284062	0.097079	0.194981	5739.368652
1876.284962	0.097013	0.194981	5826.680176
1876.285851	0.097035	0.194981	5912.944336
1877.261763	1.391946	0.243675	604.104431
1877.262725	1.916437	0.243675	2447.716553
1877.263645	1.877743	0.243675	4175.240234
1877.264557	0.969089	0.243675	5059.049805
1877.265444	0.101803	0.243675	5149.349121
1877.266397	0.097072	0.243675	5241.858398
1877.267292	0.097094	0.243675	5328.757324
1877.268190	0.097097	0.243675	5415.950684
1877.269078	0.097115	0.243675	5502.189453
1877.270009	0.097134	0.243675	5592.621094
1877.270911	0.096987	0.243675	5680.103516
1877.271811	0.097075	0.243675	5767.471191
1877.272733	0.097167	0.243675	5857.059082
1877.273642	0.097115	0.243675	5945.336914
1878.289879	1.423975	0.199871	635.092712
1878.290799	1.917894	0.199871	2399.555420
1878.291703	1.880098	0.199871	4099.163574
1878.292651	0.991216	0.199871	5038.835937
1878.293553	0.101796	0.199871	5130.655762
1878.294454	0.096962	0.199871	5218.018066
1878.295341	0.097039	0.199871	5304.091309
1878.296277	0.097061	0.199871	5394.939941
1878.297177	0.097090	0.199871	5482.320801
1878.298084	0.097046	0.199871	5570.341309
1878.298967	0.097020	0.199871	5656.010254
1878.299917	0.097035	0.199871	5748.193359
1878.300822	0.097002	0.199871	5835.979980
1878.301713	0.097068	0.199871	5922.467285
1879.276517	1.442443	0.247478	659.196228
1879.277435	1.918206	0.247478	2420.108887
1879.278337	1.879435	0.247478	4115.359375
1879.279296	0.958359	0.247478	5034.425781
1879.280199	0.100975	0.247478	5125.606445
1879.281104	0.096995	0.247478	5213.386719
1879.281996	0.097031	0.247478	5299.938477
1879.282946	0.097115	0.247478	5392.198242
1879.283854	0.097083	0.247478	5480.349121
1879.284743	0.097068	0.247478	5566.642578
1879.285656	0.097068	0.247478	5655.265625
1879.286562	0.097203	0.247478	5743.332031
1879.287467	0.097079	0.247478	5831.188477
1879.288361	0.097075	0.247478	5917.973633
1880.304353	1.416903	0.209942	636.189514
1880.305254	1.918250	0.209942	2364.532471
1880.306148	1.881423	0.209942	4046.524902
1880.307111	1.012917	0.209942	5021.964355
1880.307999	0.102894	0.209942	5113.334473
1880.308885	0.097013	0.209942	5199.288086
1880.309810	0.097115	0.209942	5289.120117
1880.310731	0.097053	0.209942	5378.506348
1880.311630	0.097072	0.209942	5465.773437
1880.312521	0.096936	0.209942	5552.143555
1880.313459	0.097024	0.209942	5643.151855
1880.314365	0.097028	0.209942	5731.059082
1880.315286	0.097072	0.209942	5820.461914
1880.316176	0.097061	0.209942	5906.845703
1881.292106	1.394216	0.248585	613.455200
1881.293063	1.918506	0.248585	2449.465332
1881.293983	1.877337	0.248585	4176.614746
1881.294894	0.965343	0.248585	5056.042480
1881.295789	0.101587	0.248585	5146.962891
1881.296738	0.097064	0.248585	5239.076660
1881.297645	0.097020	0.248585	5327.074219
1881.298535	0.096991	0.248585	5413.395996
1881.299464	0.097137	0.248585	5503.636719
1881.300371	0.097061	0.248585	5591.670410
1881.301264	0.097101	0.248585	5678.381348
1881.302153	0.097072	0.248585	5764.677734
1881.303086	0.097057	0.248585	5855.231934
1881.304002	0.097057	0.248585	5944.136230
1882.320212	1.410132	0.215489	628.918762
1882.321112	1.918326	0.215489	2355.412598
1882.322045	1.880698	0.215489	4110.104004
1882.322983	0.991447	0.215489	5040.081055
1882.323885	0.101763	0.215489	5131.871094
1882.324779	0.096954	0.215489	5218.548340
1882.325726	0.097064	0.215489	5310.468262
1882.326631	0.097050	0.215489	5398.298340
1882.327529	0.097090	0.215489	5485.484863
1882.328416	0.097057	0.215489	5571.574219
1882.329353	0.097174	0.215489	5662.626465
1882.330264	0.097130	0.215489	5751.111816
1882.331165	0.097097	0.215489	5838.596191
1882.332092	0.097064	0.215489	5928.574707
1883.308807	1.443388	0.246805	721.693726
1883.309719	1.918392	0.246805	2471.267578
1883.310621	1.877560	0.246805	4164.826660
1883.311522	0.991589	0.246805	5058.248535
1883.312474	0.099943	0.246805	5153.394043
1883.313373	0.096918	0.246805	5240.522949
1883.314278	0.097050	0.246805	5328.353027
1883.315179	0.096987	0.246805	5415.738770
1883.316116	0.097108	0.246805	5506.729004
1883.317024	0.097097	0.246805	5594.893066
1883.317918	0.097035	0.246805	5681.642090
1883.318859	0.097101	0.246805	5773.014160
1883.319762	0.097094	0.246805	5860.689453
1883.320656	0.097064	0.246805	5947.464844
1884.333529	1.423081	0.217390	647.501892
1884.334424	1.918030	0.217390	2364.138672
1884.335366	1.880171	0.217390	4135.259766
1884.336289	0.996823	0.217390	5055.327148
1884.337181	0.102404	0.217390	5146.670898
1884.338070	0.096984	0.217390	5232.889160
1884.339004	0.097137	0.217390	5323.615723
1884.339905	0.097130	0.217390	5411.129883
1884.340804	0.097039	0.217390	5498.367676
1884.341693	0.097072	0.217390	5584.664062
1884.342646	0.097126	0.217390	5677.225586
1884.343554	0.097046	0.217390	5765.343262
1884.344447	0.097115	0.217390	5852.067383
1884.345378	0.097130	0.217390	5942.495605
1885.324410	1.450148	0.239179	703.321655
1885.325307	1.918290	0.239179	2424.027832
1885.326263	1.877538	0.239179	4218.954102
1885.327176	0.921145	0.239179	5059.959473
1885.328092	0.099983	0.239179	5151.543945
1885.328988	0.096998	0.239179	5238.454590
1885.329925	0.097002	0.239179	5329.345215
1885.330826	0.096991	0.239179	5416.733887
1885.331713	0.097009	0.239179	5502.781250
1885.332642	0.097046	0.239179	5592.937012
1885.333559	0.097017	0.239179	5681.901367
1885.334453	0.097039	0.239179	5768.653809
1885.335344	0.097046	0.239179	5855.121582
1885.336274	0.097046	0.239179	5945.374023
1886.344937	1.416694	0.216327	664.429687
1886.345879	1.918480	0.216327	2471.637939
1886.346795	1.876754	0.216327	4190.744629
1886.347697	0.963453	0.216327	5059.779297
1886.348643	0.100686	0.216327	5155.028320
1886.349543	0.096980	0.216327	5242.310547
1886.350442	0.097086	0.216327	5329.590820
1886.351336	0.097017	0.216327	5416.323730
1886.352289	0.097086	0.216327	5508.846680
1886.353198	0.097079	0.216327	5597.091309
1886.354093	0.097075	0.216327	5683.973633
1886.355020	0.097090	0.216327	5773.976074
1886.355927	0.097174	0.216327	5862.112793
1886.356836	0.097039	0.216327	5950.320801
1887.341829	1.460347	0.236871	724.331909
1887.342740	1.918326	0.236871	2471.927246
1887.343651	1.877684	0.236871	4182.497559
1887.344553	0.975436	0.236871	5062.340820
1887.345503	0.099932	0.236871	5157.275879
1887.346416	0.096976	0.236871	5245.815430
1887.347313	0.097123	0.236871	5332.934570
1887.348234	0.097152	0.236871	5422.411621
1887.349136	0.097174	0.236871	5510.062500
1887.350041	0.097134	0.236871	5597.968750
1887.350930	0.097097	0.236871	5684.288086
1887.351851	0.097097	0.236871	5773.714355
1887.352750	0.097178	0.236871	5861.077148
1887.353649	0.097035	0.236871	5948.311523
1888.353991	1.397333	0.222115	607.839722
1888.354947	1.916642	0.222115	2440.149170
1888.355865	1.877904	0.222115	4164.064941
1888.356770	0.992542	0.222115	5062.314941
1888.357660	0.102268	0.222115	5153.333496
1888.358610	0.097061	0.222115	5245.541016
1888.359507	0.097101	0.222115	5332.640625
1888.360406	0.097042	0.222115	5419.881836
1888.361293	0.097031	0.222115	5505.948730
1888.362226	0.097115	0.222115	5596.557617
1888.363130	0.097042	0.222115	5684.283691
1888.364023	0.097035	0.222115	5770.936035
1888.364955	0.097046	0.222115	5861.382812
1888.365860	0.097090	0.222115	5949.249023
1889.356507	1.430350	0.232536	650.809387
1889.357400	1.917986	0.232536	2363.570801
1889.358347	1.878951	0.232536	4142.937988
1889.359266	0.993494	0.232536	5055.958496
1889.360167	0.101898	0.232536	5147.768555
1889.361055	0.096980	0.232536	5233.886719
1889.362010	0.097222	0.232536	5326.733398
1889.362921	0.097002	0.232536	5415.102051
1889.363824	0.097079	0.232536	5502.764160
1889.364753	0.097123	0.232536	5592.991211
1889.365646	0.097064	0.232536	5679.669434
1889.366560	0.097035	0.232536	5768.359375
1889.367451	0.097086	0.232536	5854.863281
1889.368383	0.097072	0.232536	5945.333984
1890.360142	1.403481	0.228979	623.145752
1890.361044	1.918154	0.228979	2353.320801
1890.361938	1.881079	0.228979	4035.005371
1890.362904	1.019579	0.228979	5019.918457
1890.363795	0.103070	0.228979	5111.753906
1890.364682	0.096976	0.228979	5197.771973
1890.365598	0.097108	0.228979	5286.723145
1890.366507	0.096962	0.228979	5374.861328
1890.367422	0.097057	0.228979	5463.668457
1890.368321	0.097028	0.228979	5550.896484
1890.369256	0.097006	0.228979	5641.596680
1890.370165	0.097031	0.228979	5729.797852
1890.371088	0.097020	0.228979	5819.347656
1890.371974	0.097009	0.228979	5905.297852
1891.371860	1.416643	0.239042	627.572937
1891.372772	1.917729	0.239042	2376.542236
1891.373675	1.880848	0.239042	4074.948242
1891.374629	1.008571	0.239042	5037.124512
1891.375537	0.101726	0.239042	5129.491699
1891.376447	0.096903	0.239042	5217.673340
1891.377335	0.097050	0.239042	5303.853516
1891.378290	0.097097	0.239042	5396.581543
1891.379195	0.097035	0.239042	5484.397949
1891.380098	0.097046	0.239042	5572.030273
1891.380984	0.097094	0.239042	5658.055176
1891.381916	0.097145	0.239042	5748.594238
1891.382831	0.097006	0.239042	5837.354492
1891.383723	0.097035	0.239042	5923.909668
1892.369624	1.409484	0.240049	627.220154
1892.370515	1.918110	0.240049	2336.256592
1892.371480	1.879087	0.240049	4149.575684
1892.372392	1.028632	0.240049	5087.687500
1892.373289	0.103103	0.240049	5180.170898
1892.374173	0.097009	0.240049	5265.927246
1892.375098	0.097057	0.240049	5355.705078
1892.376014	0.096998	0.240049	5444.555664
1892.376913	0.097020	0.240049	5531.776855
1892.377846	0.097083	0.240049	5622.354980
1892.378756	0.097134	0.240049	5710.746582
1892.379659	0.097053	0.240049	5798.385742
1892.380548	0.097020	0.240049	5884.636719
1892.381486	0.097075	0.240049	5975.693359
1893.387082	1.395000	0.254946	609.614990
1893.388030	1.918597	0.254946	2428.445312
1893.388953	1.878003	0.254946	4161.841797
1893.389870	0.973649	0.254946	5054.677734
1893.390755	0.102041	0.254946	5144.983887
1893.391701	0.096991	0.254946	5236.737305
1893.392608	0.097028	0.254946	5324.741211
1893.393496	0.096958	0.254946	5410.839844
1893.394433	0.097119	0.254946	5501.840332
1893.395334	0.097097	0.254946	5589.324707
1893.396240	0.097104	0.254946	5677.301270
1893.397133	0.097031	0.254946	5763.950195
1893.398094	0.097075	0.254946	5857.239258
1893.398995	0.097068	0.254946	5944.697266
1894.385120	1.423312	0.238656	637.643677
1894.386044	1.918070	0.238656	2409.940430
1894.386941	1.880372	0.238656	4096.634277
1894.387893	0.991143	0.238656	5040.202148
1894.388790	0.102081	0.238656	5131.769043
1894.389689	0.097002	0.238656	5218.973633
1894.390581	0.097020	0.238656	5305.515625
1894.391523	0.097108	0.238656	5396.991699
1894.392427	0.096987	0.238656	5484.668457
1894.393328	0.097046	0.238656	5572.106934
1894.394266	0.097035	0.238656	5663.125488
1894.395172	0.097083	0.238656	5751.082031
1894.396071	0.097053	0.238656	5838.333008
1894.396959	0.097064	0.238656	5924.525879
1895.399884	1.397241	0.254898	609.197205
1895.400830	1.916602	0.254898	2422.302490
1895.401749	1.878501	0.254898	4148.645020
1895.402659	1.001964	0.254898	5060.432617
1895.403548	0.102477	0.254898	5151.534668
1895.404499	0.097068	0.254898	5243.846191
1895.405404	0.097035	0.254898	5331.662598
1895.406303	0.097042	0.254898	5418.903320
1895.407188	0.097020	0.254898	5504.766113
1895.408114	0.097053	0.254898	5594.637207
1895.409023	0.096910	0.254898	5682.728516
1895.409922	0.096995	0.254898	5769.926758
1895.410854	0.097064	0.254898	5860.390625
1895.411761	0.097068	0.254898	5948.431152
1896.402262	1.417881	0.222006	636.628479
1896.403167	1.918147	0.222006	2372.551514
1896.404109	1.879464	0.222006	4143.006836
1896.405031	0.985770	0.222006	5051.886719
1896.405931	0.101770	0.222006	5143.479492
1896.406822	0.096885	0.222006	5229.803711
1896.407773	0.097090	0.222006	5322.136230
1896.408672	0.096976	0.222006	5409.317871
1896.409570	0.097053	0.222006	5496.471680
1896.410454	0.096984	0.222006	5582.205078
1896.411393	0.097002	0.222006	5673.290039
1896.412297	0.096932	0.222006	5760.916992
1896.413198	0.097020	0.222006	5848.332031
1896.414126	0.097086	0.222006	5938.428223
1897.410836	1.484751	0.251014	761.677246
1897.411745	1.918378	0.251014	2505.482422
1897.412653	1.877194	0.251014	4209.974121
1897.413549	0.962461	0.251014	5072.338867
1897.414487	0.100005	0.251014	5166.143555
1897.415397	0.096914	0.251014	5254.335449
1897.416292	0.097031	0.251014	5341.178223
1897.417209	0.096929	0.251014	5430.062012
1897.418120	0.097126	0.251014	5518.544434
1897.419022	0.097020	0.251014	5606.056641
1897.419914	0.097002	0.251014	5692.582520
1897.420850	0.097148	0.251014	5783.513672
1897.421759	0.097112	0.251014	5871.788086
1897.422653	0.097020	0.251014	5958.524414
1898.420173	1.408363	0.196398	625.313171
1898.421151	1.918293	0.196398	2501.404053
1898.422071	1.876523	0.196398	4227.805664
1898.422975	0.936650	0.196398	5074.537598
1898.423922	0.100865	0.196398	5170.057129
1898.424818	0.096987	0.196398	5256.957520
1898.425718	0.097064	0.196398	5344.315430
1898.426609	0.097061	0.196398	5430.796387
1898.427545	0.097145	0.196398	5521.724121
1898.428449	0.097097	0.196398	5609.500000
1898.429355	0.097075	0.196398	5697.450195
1898.430242	0.097068	0.196398	5783.549316
1898.431196	0.097075	0.196398	5876.159180
1898.432099	0.097053	0.196398	5963.798340
1899.420876	1.406136	0.245673	618.700012
1899.421846	1.918191	0.245673	2479.345215
1899.422760	1.877340	0.245673	4195.233887
1899.423660	0.971895	0.245673	5069.938965
1899.424595	0.101620	0.245673	5164.953613
1899.425509	0.096954	0.245673	5253.569824
1899.426406	0.096958	0.245673	5340.541016
1899.427295	0.097017	0.245673	5426.788574
1899.428240	0.097020	0.245673	5518.472656
1899.429136	0.096940	0.245673	5605.330566
1899.430053	0.097057	0.245673	5694.331543
1899.430952	0.097064	0.245673	5781.592285
1899.431900	0.097042	0.245673	5873.588379
1899.432803	0.097039	0.245673	5961.214355
1900.438493	1.405994	0.188527	639.727051
1900.439396	1.918107	0.188527	2371.777344
1900.440295	1.880544	0.188527	4062.386719
1900.441252	1.000734	0.188527	5020.088867
1900.442154	0.101895	0.188527	5111.997559
1900.443047	0.097035	0.188527	5198.649902
1900.443963	0.097115	0.188527	5287.607910
1900.444881	0.097104	0.188527	5376.750000
1900.445790	0.097057	0.188527	5464.974609
1900.446686	0.097094	0.188527	5551.970215
1900.447627	0.097097	0.188527	5643.338867
1900.448536	0.097053	0.188527	5731.560059
1900.449429	0.097068	0.188527	5818.241699
1900.450321	0.097050	0.188527	5904.810059
1901.429446	1.395110	0.256477	609.663025
1901.430342	1.916386	0.256477	2326.744385
1901.431337	1.876999	0.256477	4194.358887
1901.432258	0.930604	0.256477	5051.445312
1901.433148	0.100803	0.256477	5141.160156
1901.434073	0.097042	0.256477	5230.924316
1901.434971	0.097020	0.256477	5318.048340
1901.435868	0.097068	0.256477	5405.118164
1901.436756	0.097094	0.256477	5491.337402
1901.437699	0.097108	0.256477	5582.910156
1901.438609	0.097013	0.256477	5671.191895
1901.439501	0.096998	0.256477	5757.714355
1901.440392	0.097061	0.256477	5844.195312
1901.441348	0.097039	0.256477	5936.964355
1902.453617	1.441238	0.194880	687.470459
1902.454535	1.918308	0.194880	2448.477295
1902.455441	1.878556	0.194880	4150.449219
1902.456337	1.017279	0.194880	5061.931152
1902.457295	0.100404	0.194880	5158.118164
1902.458200	0.096998	0.194880	5245.901855
1902.459094	0.097024	0.194880	5332.641113
1902.460012	0.097137	0.194880	5421.813477
1902.460921	0.097112	0.194880	5510.087891
1902.461835	0.096980	0.194880	5598.727539
1902.462730	0.097009	0.194880	5685.550781
1902.463651	0.097050	0.194880	5774.933594
1902.464560	0.097083	0.194880	5863.181641
1902.465463	0.096987	0.194880	5950.761230
1903.439989	1.415017	0.266568	680.623230
1903.440910	1.918499	0.266568	2447.560547
1903.441816	1.878285	0.266568	4149.286621
1903.442726	0.992637	0.266568	5052.585937
1903.443670	0.100507	0.266568	5147.464355
1903.444577	0.097083	0.266568	5235.518066
1903.445487	0.097130	0.266568	5323.906250
1903.446376	0.097130	0.266568	5410.254883
1903.447321	0.097141	0.266568	5502.053223
1903.448231	0.097104	0.266568	5590.418457
1903.449120	0.097101	0.266568	5676.741211
1903.450042	0.097130	0.266568	5766.295410
1903.450947	0.097148	0.266568	5854.214844
1903.451842	0.097064	0.266568	5941.087402
1904.467033	1.414512	0.208834	623.799683
1904.467951	1.918209	0.208834	2384.715820
1904.468862	1.880262	0.208834	4097.634766
1904.469797	1.024790	0.208834	5055.813477
1904.470713	0.101785	0.208834	5149.048340
1904.471625	0.097053	0.208834	5237.561035
1904.472517	0.097126	0.208834	5324.197754
1904.473444	0.097145	0.208834	5414.250977
1904.474354	0.097097	0.208834	5502.609375
1904.475256	0.097039	0.208834	5590.138184
1904.476148	0.097126	0.208834	5676.774902
1904.477106	0.097126	0.208834	5769.822266
1904.478021	0.097042	0.208834	5858.615723
1904.478921	0.097108	0.208834	5946.013184
1905.454041	1.416822	0.265561	631.902832
1905.454947	1.917850	0.265561	2369.475098
1905.455841	1.881764	0.265561	4051.771973
1905.456806	1.015785	0.265561	5032.004395
1905.457709	0.102784	0.265561	5124.818848
1905.458604	0.096984	0.265561	5211.619141
1905.459491	0.096958	0.265561	5297.621094
1905.460430	0.097130	0.265561	5388.826172
1905.461348	0.097020	0.265561	5477.890625
1905.462249	0.097072	0.265561	5565.352051
1905.463174	0.097112	0.265561	5655.180664
1905.464076	0.097112	0.265561	5742.775391
1905.464976	0.097072	0.265561	5830.139648
1905.465867	0.097039	0.265561	5916.601074
1906.477910	1.420631	0.222478	637.863342
1906.478812	1.918290	0.222478	2368.160889
1906.479758	1.879981	0.222478	4146.622559
1906.480685	0.978497	0.222478	5053.689453
1906.481580	0.101646	0.222478	5144.662109
1906.482467	0.097013	0.222478	5230.712402
1906.483423	0.097123	0.222478	5323.562012
1906.484320	0.097101	0.222478	5410.661621
1906.485220	0.097094	0.222478	5498.045898
1906.486108	0.097134	0.222478	5584.300781
1906.487052	0.097035	0.222478	5675.901855
1906.487954	0.096969	0.222478	5763.367676
1906.488856	0.097028	0.222478	5850.886719
1906.489782	0.097086	0.222478	5940.788574
1907.470043	1.418917	0.262797	627.161377
1907.470964	1.918019	0.262797	2393.656738
1907.471879	1.879655	0.262797	4113.540527
1907.472811	1.003857	0.262797	5049.135742
1907.473705	0.102374	0.262797	5140.658203
1907.474669	0.097020	0.262797	5234.185547
1907.475583	0.096976	0.262797	5322.821777
1907.476504	0.097079	0.262797	5412.231445
1907.477394	0.097013	0.262797	5498.572754
1907.478342	0.097108	0.262797	5590.631348
1907.479255	0.097097	0.262797	5679.281250
1907.480142	0.097028	0.262797	5765.344727
1907.481069	0.097086	0.262797	5855.343750
1907.481976	0.097061	0.262797	5943.377441
1908.492237	1.389587	0.229801	605.860107
1908.493132	1.917484	0.229801	2322.008301
1908.494096	1.878882	0.229801	4133.250488
1908.495024	0.972667	0.229801	5035.885742
1908.495943	0.100887	0.229801	5128.601074
1908.496834	0.096998	0.229801	5215.026367
1908.497790	0.097108	0.229801	5307.861816
1908.498684	0.097104	0.229801	5394.673340
1908.499575	0.097086	0.229801	5481.177246
1908.500510	0.097083	0.229801	5571.949219
1908.501411	0.097028	0.229801	5659.371094
1908.502322	0.097075	0.229801	5747.806641
1908.503218	0.097108	0.229801	5834.815430
1908.504176	0.097148	0.229801	5927.883789
1909.486019	1.387112	0.258841	599.232300
1909.486976	1.916506	0.258841	2433.328857
1909.487894	1.878204	0.258841	4157.520508
1909.488820	0.970411	0.258841	5056.121582
1909.489709	0.101646	0.258841	5146.484375
1909.490643	0.096943	0.258841	5237.029297
1909.491556	0.096965	0.258841	5325.558594
1909.492481	0.097031	0.258841	5415.312500
1909.493372	0.097028	0.258841	5501.764160
1909.494316	0.097028	0.258841	5593.358398
1909.495219	0.097013	0.258841	5680.960937
1909.496108	0.097057	0.258841	5767.244629
1909.497035	0.097079	0.258841	5857.236816
1909.497942	0.097039	0.258841	5945.250977
1910.506512	1.451470	0.227646	731.540771
1910.507439	1.918250	0.227646	2509.758301
1910.508346	1.876421	0.227646	4211.671875
1910.509249	0.939924	0.227646	5060.423340
1910.510197	0.099503	0.227646	5154.752441
1910.511114	0.096973	0.227646	5243.676270
1910.512011	0.097090	0.227646	5330.765625
1910.512902	0.097104	0.227646	5417.285645
1910.513850	0.097075	0.227646	5509.312988
1910.514755	0.097064	0.227646	5597.156250
1910.515647	0.097159	0.227646	5683.822266
1910.516575	0.097134	0.227646	5773.962402
1910.517487	0.097050	0.227646	5862.471680
1910.518383	0.097061	0.227646	5949.437988
1911.502835	1.456864	0.254366	693.467285
1911.503753	1.918396	0.254366	2454.554932
1911.504662	1.878373	0.254366	4161.996094
1911.505564	0.996654	0.254366	5060.978027
1911.506512	0.100825	0.254366	5156.560547
1911.507419	0.097028	0.254366	5244.564453
1911.508313	0.097050	0.254366	5331.326660
1911.509234	0.097115	0.254366	5420.770020
1911.510144	0.097123	0.254366	5509.151855
1911.511051	0.097097	0.254366	5597.218750
1911.511939	0.097064	0.254366	5683.411621
1911.512884	0.097196	0.254366	5775.261719
1911.513795	0.097090	0.254366	5863.710449
1911.514697	0.097039	0.254366	5951.239258
1912.522058	1.397648	0.228520	610.772034
1912.523040	1.918638	0.228520	2494.874268
1912.523949	1.877545	0.228520	4201.562988
1912.524855	0.956122	0.228520	5067.809570
1912.525789	0.101294	0.228520	5162.417969
1912.526685	0.097009	0.228520	5249.338379
1912.527573	0.096973	0.228520	5335.450195
1912.528461	0.096995	0.228520	5421.581543
1912.529391	0.097020	0.228520	5511.810547
1912.530303	0.097064	0.228520	5600.333008
1912.531211	0.097042	0.228520	5688.447266
1912.532104	0.097053	0.228520	5775.115723
1912.533045	0.097061	0.228520	5866.449707
1912.533955	0.096998	0.228520	5954.718262
1913.518411	1.393645	0.250189	610.416504
1913.519355	1.918323	0.250189	2421.313232
1913.520271	1.878699	0.250189	4142.201172
1913.521187	0.998188	0.250189	5056.541992
1913.522071	0.102773	0.250189	5147.393555
1913.523014	0.097072	0.250189	5238.932129
1913.523922	0.097039	0.250189	5327.042969
1913.524815	0.097123	0.250189	5413.773437
1913.525750	0.097115	0.250189	5504.576172
1913.526655	0.097079	0.250189	5592.432617
1913.527559	0.097042	0.250189	5680.158691
1913.528450	0.097086	0.250189	5766.662598
1913.529387	0.097189	0.250189	5857.728516
1913.530284	0.097079	0.250189	5944.808105
1914.537803	1.399482	0.231884	614.372742
1914.538696	1.916788	0.231884	2326.064697
1914.539664	1.878834	0.231884	4144.776367
1914.540593	0.976780	0.231884	5052.204590
1914.541489	0.101748	0.231884	5143.370605
1914.542431	0.097009	0.231884	5234.753418
1914.543329	0.097101	0.231884	5321.950195
1914.544234	0.097064	0.231884	5409.793457
1914.545118	0.097042	0.231884	5495.578613
1914.546053	0.097057	0.231884	5586.326660
1914.546959	0.097057	0.231884	5674.260254
1914.547855	0.097072	0.231884	5761.236328
1914.548775	0.097159	0.231884	5850.623047
1914.549699	0.097097	0.231884	5940.340820
1915.534026	1.390646	0.253576	606.321533
1915.534925	1.917601	0.253576	2330.245117
1915.535882	1.879255	0.253576	4128.692383
1915.536805	0.996965	0.253576	5048.891602
1915.537710	0.101737	0.253576	5140.963867
1915.538599	0.097013	0.253576	5227.208496
1915.539544	0.097086	0.253576	5318.955078
1915.540460	0.097042	0.253576	5407.845703
1915.541349	0.097075	0.253576	5494.145508
1915.542277	0.097057	0.253576	5584.214355
1915.543182	0.097050	0.253576	5672.044434
1915.544084	0.097050	0.253576	5759.583008
1915.544976	0.097020	0.253576	5846.125000
1915.545927	0.097079	0.253576	5938.446777
1916.554061	1.399131	0.233121	615.617554
1916.554954	1.917620	0.233121	2328.052002
1916.555915	1.879182	0.233121	4133.946289
1916.556847	0.979808	0.233121	5047.127441
1916.557737	0.101876	0.233121	5137.797363
1916.558666	0.097083	0.233121	5227.986816
1916.559564	0.097174	0.233121	5315.249023
1916.560473	0.097053	0.233121	5403.470215
1916.561369	0.097123	0.233121	5490.492187
1916.562298	0.097170	0.233121	5580.763672
1916.563203	0.097134	0.233121	5668.669922
1916.564106	0.097094	0.233121	5756.345215
1916.564994	0.097061	0.233121	5842.535156
1916.565945	0.097145	0.233121	5934.919922
1917.548938	1.484542	0.259152	737.817505
1917.549846	1.918491	0.259152	2479.807617
1917.550750	1.878252	0.259152	4177.747559
1917.551648	0.989875	0.259152	5066.655762
1917.552584	0.100811	0.259152	5161.014648
1917.553491	0.096976	0.259152	5248.972168
1917.554391	0.097068	0.259152	5336.333008
1917.555325	0.097200	0.259152	5427.117676
1917.556233	0.097159	0.259152	5515.338379
1917.557131	0.097039	0.259152	5602.479004
1917.558019	0.097064	0.259152	5688.671875
1917.558968	0.097123	0.259152	5780.841309
1917.559875	0.097050	0.259152	5868.865234
1917.560770	0.097057	0.259152	5955.730957
1918.569814	1.411425	0.234885	625.261047
1918.570736	1.917755	0.234885	2393.431152
1918.571670	1.878358	0.234885	4147.817871
1918.572579	0.990674	0.234885	5048.340332
1918.573523	0.100485	0.234885	5143.197754
1918.574417	0.096976	0.234885	5229.894531
1918.575307	0.097061	0.234885	5316.278320
1918.576259	0.097075	0.234885	5408.693848
1918.577161	0.097057	0.234885	5496.239258
1918.578048	0.097046	0.234885	5582.318848
1918.578986	0.097090	0.234885	5673.389160
1918.579893	0.097020	0.234885	5761.386719
1918.580794	0.096995	0.234885	5848.778809
1918.581686	0.097079	0.234885	5935.373047
1919.563736	1.409257	0.263696	632.756226
1919.564640	1.917803	0.263696	2366.449707
1919.565592	1.879321	0.263696	4155.563477
1919.566519	0.974059	0.263696	5058.516113
1919.567415	0.101733	0.263696	5149.669434
1919.568299	0.096958	0.263696	5235.380371
1919.569234	0.097075	0.263696	5326.145508
1919.570145	0.097050	0.263696	5414.557617
1919.571043	0.097101	0.263696	5501.754395
1919.571933	0.096965	0.263696	5588.053711
1919.572878	0.097126	0.263696	5679.838379
1919.573778	0.097002	0.263696	5767.140137
1919.574666	0.097061	0.263696	5853.330078
1919.575610	0.097104	0.263696	5944.996582
1920.586585	1.423916	0.236758	639.338318
1920.587495	1.918253	0.236758	2384.948730
1920.588429	1.879325	0.236758	4140.238281
1920.589357	0.981918	0.236758	5051.458008
1920.590254	0.101788	0.236758	5142.762207
1920.591141	0.096958	0.236758	5228.764160
1920.592086	0.097083	0.236758	5320.507324
1920.592991	0.097108	0.236758	5408.390137
1920.593886	0.097028	0.236758	5495.229980
1920.594786	0.097064	0.236758	5582.587891
1920.595713	0.097119	0.236758	5672.617187
1920.596617	0.097031	0.236758	5760.333496
1920.597517	0.097137	0.236758	5847.757324
1920.598450	0.097119	0.236758	5938.369629
1921.577165	1.393414	0.261105	607.528625
1921.578097	1.916700	0.261105	2393.893555
1921.579020	1.879409	0.261105	4128.588379
1921.579955	0.980248	0.261105	5045.120117
1921.580849	0.101726	0.261105	5136.063477
1921.581782	0.097061	0.261105	5226.621094
1921.582688	0.097075	0.261105	5314.571289
1921.583588	0.097101	0.261105	5401.961914
1921.584475	0.097061	0.261105	5488.054687
1921.585430	0.097185	0.261105	5580.866211
1921.586343	0.097119	0.261105	5669.536133
1921.587240	0.097006	0.261105	5756.550293
1921.588166	0.097053	0.261105	5846.421387
1921.589070	0.097152	0.261105	5934.247070
1922.601165	1.406257	0.244287	617.346985
1922.602097	1.918506	0.244287	2405.394287
1922.603024	1.878739	0.244287	4146.985352
1922.603932	1.005535	0.244287	5060.010742
1922.604873	0.102327	0.244287	5156.300293
1922.605783	0.097083	0.244287	5244.645508
1922.606680	0.097130	0.244287	5331.770996
1922.607567	0.097013	0.244287	5417.821289
1922.608509	0.097068	0.244287	5509.259277
1922.609410	0.097097	0.244287	5596.743652
1922.610310	0.097068	0.244287	5684.104492
1922.611198	0.097126	0.244287	5770.353027
1922.612139	0.097141	0.244287	5861.762695
1922.613047	0.097028	0.244287	5949.863770
1923.589596	1.421045	0.261279	646.575439
1923.590493	1.917887	0.261279	2366.919922
1923.591450	1.879395	0.261279	4165.500488
1923.592370	0.977380	0.261279	5064.690430
1923.593267	0.101627	0.261279	5155.850098
1923.594155	0.096943	0.261279	5241.936035
1923.595091	0.097178	0.261279	5332.894531
1923.595998	0.097035	0.261279	5420.905273
1923.596904	0.097097	0.261279	5508.875488
1923.597804	0.097064	0.261279	5596.233398
1923.598747	0.097137	0.261279	5687.833984
1923.599652	0.097057	0.261279	5775.670410
1923.600547	0.097064	0.261279	5862.542969
1923.601485	0.097104	0.261279	5953.626953
1924.613202	1.403053	0.236412	617.343323
1924.614097	1.917535	0.236412	2333.537598
1924.615063	1.878783	0.236412	4148.442383
1924.615980	0.990590	0.236412	5056.812988
1924.616871	0.102114	0.236412	5147.796875
1924.617786	0.097020	0.236412	5236.570312
1924.618694	0.097148	0.236412	5324.781250
1924.619599	0.097050	0.236412	5412.611328
1924.620495	0.097006	0.236412	5499.528320
1924.621433	0.097057	0.236412	5590.567871
1924.622343	0.097075	0.236412	5678.906250
1924.623248	0.097101	0.236412	5766.782715
1924.624134	0.097061	0.236412	5852.778320
1924.625075	0.097104	0.236412	5944.153809
1925.601624	1.420221	0.255490	631.998291
1925.602544	1.918121	0.255490	2396.669922
1925.603454	1.879918	0.255490	4107.395508
1925.604392	1.010193	0.255490	5054.956543
1925.605307	0.101353	0.255490	5147.694336
1925.606210	0.096951	0.255490	5235.240723
1925.607106	0.097086	0.255490	5322.229980
1925.608050	0.097222	0.255490	5414.007324
1925.608952	0.097108	0.255490	5501.598633
1925.609848	0.097072	0.255490	5588.574707
1925.610739	0.097079	0.255490	5675.071777
1925.611675	0.097112	0.255490	5765.968262
1925.612589	0.097072	0.255490	5854.691406
1925.613486	0.097061	0.255490	5941.754883
1926.620229	1.391675	0.220713	603.986877
1926.621202	1.916668	0.220713	2468.904541
1926.622112	1.877428	0.220713	4177.364258
1926.623021	0.968199	0.220713	5057.457520
1926.623915	0.101656	0.220713	5148.338379
1926.624861	0.097145	0.220713	5240.237305
1926.625771	0.097039	0.220713	5328.542480
1926.626675	0.097057	0.220713	5416.281738
1926.627595	0.097072	0.220713	5505.587402
1926.628510	0.097064	0.220713	5594.401367
1926.629414	0.096976	0.220713	5682.067871
1926.630309	0.096969	0.220713	5768.854980
1926.631238	0.097104	0.220713	5859.064941
1926.632144	0.097097	0.220713	5947.035156
1927.614327	1.425454	0.258543	684.217957
1927.615245	1.918513	0.258543	2445.413086
1927.616157	1.878032	0.258543	4158.178711
1927.617056	1.001356	0.258543	5058.397949
1927.617999	0.100521	0.258543	5153.189453
1927.618903	0.097090	0.258543	5240.958496
1927.619808	0.097152	0.258543	5328.881348
1927.620698	0.097083	0.258543	5415.284668
1927.621653	0.097233	0.258543	5508.142090
1927.622557	0.097119	0.258543	5595.937988
1927.623448	0.097126	0.258543	5682.477539
1927.624374	0.097130	0.258543	5772.419922
1927.625278	0.097090	0.258543	5860.188965
1927.626179	0.097028	0.258543	5947.610840
1928.625361	1.413724	0.221257	629.107300
1928.626268	1.918345	0.221257	2369.045898
1928.627164	1.880673	0.221257	4054.128418
1928.628150	0.955067	0.221257	4995.824707
1928.629063	0.101041	0.221257	5088.075195
1928.629953	0.096995	0.221257	5174.400391
1928.630894	0.097115	0.221257	5265.786133
1928.631803	0.097141	0.221257	5354.087402
1928.632694	0.097145	0.221257	5440.643555
1928.633584	0.097057	0.221257	5527.024414
1928.634520	0.097159	0.221257	5617.965820
1928.635419	0.097163	0.221257	5705.315430
1928.636317	0.097046	0.221257	5792.462891
1928.637204	0.097090	0.221257	5878.581543
1929.629385	1.399416	0.267744	614.343811
1929.630278	1.917074	0.267744	2326.290771
1929.631246	1.878801	0.267744	4144.970215
1929.632172	0.978497	0.267744	5051.058594
1929.633061	0.101785	0.267744	5141.544922
1929.633990	0.096969	0.267744	5231.628906
1929.634897	0.097075	0.267744	5319.676270
1929.635804	0.096951	0.267744	5407.610352
1929.636698	0.097061	0.267744	5494.382324
1929.637625	0.097178	0.267744	5584.466309
1929.638529	0.097112	0.267744	5672.255371
1929.639429	0.097064	0.267744	5759.613281
1929.640315	0.097053	0.267744	5845.602539
1929.641267	0.097061	0.267744	5938.004395
1930.635359	1.421909	0.231799	648.390625
1930.636254	1.918297	0.231799	2365.266602
1930.637181	1.880204	0.231799	4108.215820
1930.638122	0.982507	0.231799	5032.755371
1930.639028	0.101466	0.231799	5124.683594
1930.639926	0.097006	0.231799	5211.794434
1930.640858	0.097075	0.231799	5302.268555
1930.641769	0.096998	0.231799	5390.633789
1930.642672	0.096973	0.231799	5478.200195
1930.643589	0.096980	0.231799	5567.130859
1930.644480	0.097050	0.231799	5653.602051
1930.645429	0.096998	0.231799	5745.653320
1930.646335	0.097006	0.231799	5833.540527
1930.647226	0.097020	0.231799	5919.985352
1931.646807	1.407605	0.270781	623.568970
1931.647700	1.917382	0.270781	2335.790527
1931.648681	1.878113	0.270781	4178.219238
1931.649587	0.974839	0.270781	5061.423340
1931.650475	0.101708	0.270781	5151.739746
1931.651414	0.097068	0.270781	5242.886719
1931.652319	0.097075	0.270781	5330.739746
1931.653240	0.097126	0.270781	5420.193359
1931.654131	0.097006	0.270781	5506.625488
1931.655070	0.097020	0.270781	5597.727539
1931.655976	0.097024	0.270781	5685.631348
1931.656866	0.097061	0.270781	5772.015137
1931.657813	0.097148	0.270781	5864.014648
1931.658718	0.097123	0.270781	5951.910645
1932.649293	1.402372	0.250781	615.641174
1932.650185	1.917242	0.250781	2325.821289
1932.651156	1.878717	0.250781	4150.055664
1932.652075	0.981339	0.250781	5051.906250
1932.652964	0.102015	0.250781	5142.598145
1932.653916	0.097013	0.250781	5234.954590
1932.654823	0.097072	0.250781	5322.998535
1932.655715	0.097057	0.250781	5409.573242
1932.656602	0.097101	0.250781	5495.701660
1932.657534	0.097141	0.250781	5586.237305
1932.658443	0.097020	0.250781	5674.428711
1932.659350	0.097083	0.250781	5762.482422
1932.660262	0.097086	0.250781	5851.024902
1932.661189	0.097115	0.250781	5941.050781
1933.664004	1.478335	0.279176	721.427490
1933.664910	1.918586	0.279176	2459.666748
1933.665818	1.878384	0.279176	4165.239258
1933.666716	0.991490	0.279176	5055.597656
1933.667679	0.099968	0.279176	5151.867187
1933.668587	0.096965	0.279176	5239.911621
1933.669489	0.097086	0.279176	5327.483398
1933.670410	0.097222	0.279176	5417.024414
1933.671307	0.097148	0.279176	5504.166504
1933.672201	0.097086	0.279176	5590.961426
1933.673088	0.097064	0.279176	5677.057617
1933.674018	0.097083	0.279176	5767.344238
1933.674926	0.097104	0.279176	5855.515137
1933.675826	0.097068	0.279176	5942.875977
1934.665052	1.421287	0.263196	645.264099
1934.665955	1.918407	0.263196	2377.585693
1934.666898	1.879779	0.263196	4150.217285
1934.667826	0.975905	0.263196	5055.856934
1934.668727	0.101488	0.263196	5147.297852
1934.669621	0.096991	0.263196	5234.007812
1934.670569	0.097137	0.263196	5326.094238
1934.671473	0.097119	0.263196	5413.890137
1934.672374	0.097108	0.263196	5501.384766
1934.673260	0.097039	0.263196	5587.360840
1934.674198	0.097145	0.263196	5678.482422
1934.675110	0.097002	0.263196	5766.948242
1934.676004	0.097090	0.263196	5853.746582
1934.676932	0.097148	0.263196	5943.900391
1935.680328	1.399684	0.286335	613.061523
1935.681223	1.916624	0.286335	2328.439697
1935.682207	1.877530	0.286335	4175.929687
1935.683138	0.929249	0.286335	5041.060547
1935.684028	0.100931	0.286335	5130.889648
1935.684986	0.097075	0.286335	5223.887695
1935.685886	0.097053	0.286335	5311.235352
1935.686776	0.097094	0.286335	5397.648437
1935.687729	0.097126	0.286335	5490.209961
1935.688627	0.097112	0.286335	5577.416504
1935.689538	0.097064	0.286335	5665.841797
1935.690435	0.097170	0.286335	5753.003418
1935.691374	0.097090	0.286335	5844.170898
1935.692286	0.097035	0.286335	5932.666504
1936.680932	1.431394	0.272320	651.284302
1936.681835	1.917663	0.272320	2382.934570
1936.682754	1.879523	0.272320	4110.215820
1936.683674	1.007080	0.272320	5036.729492
1936.684618	0.100646	0.272320	5131.739258
1936.685528	0.096973	0.272320	5219.984375
1936.686419	0.097083	0.272320	5306.484863
1936.687343	0.097141	0.272320	5396.243164
1936.688262	0.097083	0.272320	5485.461914
1936.689162	0.097090	0.272320	5572.842773
1936.690053	0.097112	0.272320	5659.369629
1936.690994	0.097134	0.272320	5750.772461
1936.691889	0.097068	0.272320	5837.648437
1936.692776	0.097086	0.272320	5923.763672
1937.693919	1.414442	0.285320	628.012329
1937.694837	1.917938	0.285320	2388.679687
1937.695742	1.880413	0.285320	4090.453125
1937.696688	1.016243	0.285320	5051.818848
1937.697592	0.102147	0.285320	5144.160156
1937.698492	0.096976	0.285320	5231.438965
1937.699380	0.097017	0.285320	5317.589844
1937.700330	0.097181	0.285320	5409.912109
1937.701226	0.097053	0.285320	5496.871582
1937.702118	0.097017	0.285320	5583.410156
1937.703009	0.096954	0.285320	5669.796387
1937.703961	0.097046	0.285320	5762.184082
1937.704872	0.097126	0.285320	5850.666504
1937.705769	0.097057	0.285320	5937.726562
1938.696266	1.414058	0.265287	623.599426
1938.697236	1.918546	0.265287	2484.589111
1938.698157	1.876578	0.265287	4212.917969
1938.699062	0.947952	0.265287	5070.814453
1938.699994	0.100774	0.265287	5164.735840
1938.700903	0.096998	0.265287	5252.907227
1938.701804	0.097039	0.265287	5340.338867
1938.702697	0.097050	0.265287	5427.003906
1938.703651	0.097170	0.265287	5519.704590
1938.704553	0.097083	0.265287	5607.272949
1938.705450	0.097072	0.265287	5694.346191
1938.706368	0.097126	0.265287	5783.508301
1938.707287	0.097097	0.265287	5872.740723
1938.708201	0.097013	0.265287	5961.410645
1939.702857	1.410081	0.271160	617.615295
1939.703839	1.918286	0.271160	2501.372314
1939.704757	1.876681	0.271160	4224.165039
1939.705656	0.944480	0.271160	5073.252441
1939.706585	0.100660	0.271160	5166.766113
1939.707492	0.097123	0.271160	5254.856445
1939.708389	0.097068	0.271160	5341.926270
1939.709277	0.097126	0.271160	5428.174805
1939.710233	0.097148	0.271160	5521.048828
1939.711138	0.097068	0.271160	5608.895020
1939.712034	0.097083	0.271160	5695.880859
1939.712948	0.097126	0.271160	5784.654297
1939.713863	0.097192	0.271160	5873.585449
1939.714767	0.097094	0.271160	5961.357910
1940.709837	1.400424	0.257863	618.987244
1940.710787	1.917733	0.257863	2440.833740
1940.711709	1.877098	0.257863	4171.518555
1940.712650	0.920200	0.257863	5037.426758
1940.713540	0.100723	0.257863	5127.069824
1940.714503	0.096991	0.257863	5220.472168
1940.715406	0.097083	0.257863	5308.137695
1940.716296	0.097101	0.257863	5394.557617
1940.717222	0.097163	0.257863	5484.530762
1940.718131	0.097061	0.257863	5572.758789
1940.719053	0.097101	0.257863	5662.285645
1940.719939	0.097020	0.257863	5748.245605
1940.720873	0.097035	0.257863	5838.875977
1940.721783	0.097013	0.257863	5927.157715
1941.709132	1.412326	0.263349	625.660217
1941.710093	1.918444	0.263349	2469.284424
1941.711015	1.877043	0.263349	4199.918457
1941.711923	0.954836	0.263349	5066.909668
1941.712857	0.101378	0.263349	5161.596680
1941.713767	0.097046	0.263349	5249.908203
1941.714666	0.097094	0.263349	5337.195312
1941.715556	0.097068	0.263349	5423.585937
1941.716523	0.097156	0.263349	5517.535645
1941.717422	0.097068	0.263349	5604.799805
1941.718323	0.097068	0.263349	5692.257812
1941.719207	0.097108	0.263349	5778.101562
1941.720135	0.097112	0.263349	5868.221191
1941.721048	0.097064	0.263349	5956.840820
1942.722939	1.445028	0.250289	700.838623
1942.723854	1.918484	0.250289	2456.251465
1942.724762	1.878281	0.250289	4161.730957
1942.725663	1.018711	0.250289	5079.589355
1942.726618	0.100778	0.250289	5175.832031
1942.727533	0.097017	0.250289	5264.602051
1942.728426	0.097112	0.250289	5351.322754
1942.729347	0.097097	0.250289	5440.749023
1942.730264	0.097163	0.250289	5529.847656
1942.731173	0.097053	0.250289	5618.068848
1942.732072	0.097090	0.250289	5705.352539
1942.732998	0.097181	0.250289	5795.342285
1942.733899	0.097068	0.250289	5882.800293
1942.734795	0.097097	0.250289	5969.799316
1943.718219	1.407173	0.264666	620.563232
1943.719114	1.916686	0.264666	2335.997070
1943.720095	1.877706	0.264666	4178.026855
1943.721010	0.960978	0.264666	5057.321289
1943.721900	0.101466	0.264666	5147.625977
1943.722846	0.097006	0.264666	5239.393066
1943.723742	0.097061	0.264666	5326.359375
1943.724636	0.097090	0.264666	5413.157715
1943.725530	0.097057	0.264666	5499.926758
1943.726465	0.097068	0.264666	5590.685059
1943.727372	0.097123	0.264666	5678.775391
1943.728270	0.097112	0.264666	5765.981934
1943.729178	0.096991	0.264666	5854.049805
1943.730096	0.097094	0.264666	5943.181641
1944.736622	1.423795	0.245206	672.031311
1944.737584	1.918246	0.245206	2517.383789
1944.738493	1.876044	0.245206	4222.707520
1944.739389	0.935599	0.245206	5061.004395
1944.740351	0.100012	0.245206	5157.216309
1944.741263	0.097017	0.245206	5245.695312
1944.742179	0.097079	0.245206	5334.619629
1944.743069	0.097115	0.245206	5421.052246
1944.744014	0.097097	0.245206	5512.809082
1944.744907	0.097061	0.245206	5599.484375
1944.745799	0.097152	0.245206	5686.144043
1944.746728	0.097134	0.245206	5776.381348
1944.747646	0.097079	0.245206	5865.499512
1944.748547	0.097104	0.245206	5952.990723
1945.731916	1.404646	0.267261	623.662842
1945.732873	1.918187	0.267261	2459.367920
1945.733793	1.877153	0.267261	4186.349121
1945.734705	0.956147	0.267261	5058.355469
1945.735608	0.101312	0.267261	5149.840332
1945.736546	0.097053	0.267261	5240.876465
1945.737455	0.096973	0.267261	5329.024414
1945.738347	0.097028	0.267261	5415.573242
1945.739289	0.097137	0.267261	5507.076660
1945.740197	0.097097	0.267261	5595.240723
1945.741099	0.097031	0.267261	5682.762695
1945.741990	0.097068	0.267261	5769.250000
1945.742919	0.097072	0.267261	5859.429687
1945.743826	0.097061	0.267261	5947.463379
1946.752378	1.420843	0.244090	690.529907
1946.753295	1.918213	0.244090	2449.531250
1946.754204	1.877922	0.244090	4156.562500
1946.755108	0.995065	0.244090	5056.101074
1946.756042	0.100562	0.244090	5150.025391
1946.756945	0.097013	0.244090	5237.627930
1946.757846	0.097068	0.244090	5325.085937
1946.758734	0.097145	0.244090	5411.350586
1946.759665	0.097115	0.244090	5501.765137
1946.760568	0.097028	0.244090	5589.380859
1946.761455	0.096973	0.244090	5675.395508
1946.762395	0.097101	0.244090	5766.670410
1946.763306	0.097130	0.244090	5855.155762
1946.764201	0.097079	0.244090	5942.041504
1947.746898	1.415995	0.276880	632.949646
1947.747796	1.917861	0.276880	2355.189209
1947.748690	1.880925	0.276880	4036.736328
1947.749663	1.010087	0.276880	5019.550781
1947.750563	0.102323	0.276880	5111.641602
1947.751460	0.096980	0.276880	5198.632812
1947.752380	0.097134	0.276880	5287.996094
1947.753289	0.097112	0.276880	5376.270508
1947.754183	0.097002	0.276880	5462.990234
1947.755071	0.097050	0.276880	5549.170410
1947.756016	0.097086	0.276880	5640.916992
1947.756916	0.097101	0.276880	5728.307617
1947.757820	0.097028	0.276880	5816.020508
1947.758708	0.097057	0.276880	5902.207031
1948.767951	1.401185	0.249685	616.521545
1948.768901	1.916906	0.249685	2437.581787
1948.769815	1.878102	0.249685	4154.166992
1948.770726	0.992717	0.249685	5058.532227
1948.771614	0.102448	0.249685	5149.505859
1948.772557	0.097057	0.249685	5241.030273
1948.773470	0.097006	0.249685	5329.596191
1948.774373	0.097009	0.249685	5417.195801
1948.775265	0.097031	0.249685	5503.747559
1948.776200	0.097079	0.249685	5594.516113
1948.777108	0.096973	0.249685	5682.567383
1948.777996	0.097039	0.249685	5768.737793
1948.778929	0.097057	0.249685	5859.291992
1948.779834	0.097017	0.249685	5947.091797
1949.763021	1.405756	0.286198	619.938232
1949.763918	1.917821	0.286198	2340.223633
1949.764812	1.882390	0.286198	4023.080566
1949.765778	1.035102	0.286198	5022.989746
1949.766686	0.102726	0.286198	5116.264648
1949.767592	0.097061	0.286198	5204.201660
1949.768480	0.097090	0.286198	5290.417480
1949.769427	0.097130	0.286198	5382.399902
1949.770335	0.097053	0.286198	5470.524414
1949.771225	0.097031	0.286198	5556.882324
1949.772156	0.097097	0.286198	5647.279785
1949.773062	0.097097	0.286198	5735.250000
1949.773963	0.097094	0.286198	5822.731445
1949.774853	0.097042	0.286198	5909.099121
1950.783450	1.420558	0.253234	639.251038
1950.784348	1.918433	0.253234	2362.003662
1950.785290	1.880010	0.253234	4132.972656
1950.786216	0.990333	0.253234	5050.021484
1950.787109	0.102125	0.253234	5141.219238
1950.788001	0.097002	0.253234	5227.745117
1950.788955	0.097170	0.253234	5320.445801
1950.789856	0.097072	0.253234	5407.907227
1950.790753	0.097009	0.253234	5494.924316
1950.791639	0.097072	0.253234	5580.929687
1950.792582	0.097167	0.253234	5672.558105
1950.793477	0.097079	0.253234	5759.443848
1950.794375	0.097126	0.253234	5846.663574
1950.795310	0.097108	0.253234	5937.459473
1951.779039	1.430398	0.293348	647.970215
1951.779961	1.917740	0.293348	2416.126953
1951.780863	1.879691	0.293348	4111.608398
1951.781816	0.988458	0.293348	5053.609375
1951.782725	0.101104	0.293348	5145.512695
1951.783622	0.096995	0.293348	5232.517090
1951.784523	0.097086	0.293348	5319.991699
1951.785447	0.097042	0.293348	5409.658691
1951.786360	0.097068	0.293348	5498.281738
1951.787265	0.097097	0.293348	5586.154785
1951.788151	0.096991	0.293348	5672.088867
1951.789095	0.097167	0.293348	5763.814453
1951.790003	0.097072	0.293348	5851.955566
1951.790896	0.097090	0.293348	5938.656738
1952.799698	1.410630	0.261089	624.909058
1952.800600	1.917942	0.261089	2354.892578
1952.801496	1.881042	0.261089	4040.306641
1952.802472	0.992732	0.261089	5009.212891
1952.803377	0.101917	0.261089	5101.447266
1952.804271	0.096965	0.261089	5188.134277
1952.805211	0.096987	0.261089	5279.302246
1952.806117	0.097079	0.261089	5367.255859
1952.807010	0.096991	0.261089	5453.868652
1952.807902	0.096969	0.261089	5540.365234
1952.808846	0.097053	0.261089	5631.983398
1952.809755	0.097006	0.261089	5720.161621
1952.810659	0.097104	0.261089	5807.943848
1952.811566	0.097009	0.261089	5895.931152
1953.795074	1.448152	0.290254	715.387024
1953.795988	1.918605	0.290254	2468.991943
1953.796894	1.877919	0.290254	4170.386230
1953.797788	1.002067	0.290254	5066.233887
1953.798747	0.100107	0.290254	5162.236816
1953.799643	0.097013	0.290254	5249.160645
1953.800548	0.097115	0.290254	5337.050293
1953.801437	0.097035	0.290254	5423.314453
1953.802374	0.097196	0.290254	5514.387207
1953.803282	0.097064	0.290254	5602.521484
1953.804170	0.097046	0.290254	5688.698242
1953.805096	0.097126	0.290254	5778.637207
1953.806005	0.097104	0.290254	5866.905273
1953.806908	0.097017	0.290254	5954.511230
1954.815210	1.453026	0.258092	675.657104
1954.816127	1.918297	0.258092	2434.735352
1954.817048	1.877509	0.258092	4163.920898
1954.817986	0.934581	0.258092	5040.558105
1954.818874	0.101166	0.258092	5130.393555
1954.819825	0.096907	0.258092	5222.551758
1954.820740	0.097050	0.258092	5311.352051
1954.821665	0.097046	0.258092	5401.119629
1954.822552	0.096962	0.258092	5487.124512
1954.823485	0.097072	0.258092	5577.692383
1954.824404	0.097061	0.258092	5666.891113
1954.825299	0.097079	0.258092	5753.776855
1954.826253	0.097031	0.258092	5846.344727
1954.827159	0.096962	0.258092	5934.191895
1955.810774	1.410586	0.286367	624.889587
1955.811674	1.918253	0.286367	2351.317627
1955.812592	1.880354	0.286367	4077.482666
1955.813537	1.000884	0.286367	5023.317871
1955.814465	0.101049	0.286367	5117.090820
1955.815355	0.097057	0.286367	5203.471680
1955.816307	0.097061	0.286367	5295.873535
1955.817207	0.097123	0.286367	5383.284180
1955.818094	0.097152	0.286367	5469.458008
1955.819041	0.097156	0.286367	5561.464355
1955.819945	0.097068	0.286367	5649.213867
1955.820853	0.097028	0.286367	5737.314941
1955.821750	0.097130	0.286367	5824.440430
1955.822684	0.097086	0.286367	5915.119141
1956.830426	1.411011	0.261730	640.598877
1956.831323	1.918081	0.261730	2361.117432
1956.832283	1.879233	0.261730	4165.181641
1956.833192	0.980153	0.261730	5056.140137
1956.834119	0.100657	0.261730	5149.448730
1956.835015	0.097024	0.261730	5236.382324
1956.835944	0.097134	0.261730	5326.619629
1956.836852	0.097053	0.261730	5414.744141
1956.837772	0.097097	0.261730	5504.073730
1956.838661	0.097097	0.261730	5590.393066
1956.839616	0.097046	0.261730	5683.071777
1956.840515	0.097101	0.261730	5770.365234
1956.841403	0.097112	0.261730	5856.600586
1956.842342	0.097115	0.261730	5947.791992
1957.827406	1.403397	0.278427	623.108337
1957.828301	1.917074	0.278427	2338.889648
1957.829280	1.877260	0.278427	4176.726562
1957.830198	0.955789	0.278427	5054.140625
1957.831090	0.101217	0.278427	5144.426270
1957.832024	0.097061	0.278427	5235.081055
1957.832953	0.097072	0.278427	5325.260742
1957.833858	0.097053	0.278427	5413.093750
1957.834747	0.097009	0.278427	5499.334961
1957.835688	0.097028	0.278427	5590.637695
1957.836598	0.097020	0.278427	5678.926270
1957.837515	0.097064	0.278427	5767.934082
1957.838403	0.096965	0.278427	5854.039062
1957.839339	0.097042	0.278427	5944.870605
1958.845442	1.446123	0.259289	710.046387
1958.846361	1.918495	0.259289	2473.143066
1958.847280	1.876871	0.259289	4197.987793
1958.848191	0.947479	0.259289	5061.141602
1958.849155	0.099261	0.259289	5156.829590
1958.850064	0.097046	0.259289	5245.044434
1958.850952	0.097050	0.259289	5331.224609
1958.851856	0.097068	0.259289	5418.974121
1958.852783	0.097050	0.259289	5508.938965
1958.853677	0.097079	0.259289	5595.727539
1958.854568	0.097090	0.259289	5682.234375
1958.855502	0.097185	0.259289	5773.005371
1958.856412	0.097075	0.259289	5861.343750
1958.857307	0.097090	0.259289	5948.239258
1959.843537	1.398131	0.276493	617.973938
1959.844437	1.918217	0.276493	2344.368896
1959.845375	1.880394	0.276493	4108.178711
1959.846296	1.025277	0.276493	5052.458984
1959.847185	0.103319	0.276493	5144.309570
1959.848108	0.097094	0.276493	5233.926758
1959.849016	0.097115	0.276493	5322.107422
1959.849911	0.097006	0.276493	5408.927246
1959.850799	0.097104	0.276493	5495.156250
1959.851741	0.097126	0.276493	5586.649414
1959.852654	0.097057	0.276493	5675.262207
1959.853554	0.097039	0.276493	5762.596680
1959.854442	0.097053	0.276493	5848.779785
1959.855394	0.097222	0.276493	5941.334961
1960.858716	1.423550	0.259969	637.750305
1960.859617	1.918326	0.259969	2366.162598
1960.860508	1.881372	0.259969	4042.465088
1960.861486	1.005410	0.259969	5025.756348
1960.862391	0.102550	0.259969	5118.563965
1960.863282	0.096991	0.259969	5204.982910
1960.864209	0.097141	0.259969	5295.032715
1960.865120	0.097134	0.259969	5383.521484
1960.866028	0.097020	0.259969	5471.615723
1960.866929	0.097064	0.259969	5559.070801
1960.867858	0.097148	0.259969	5649.321777
1960.868763	0.097053	0.259969	5737.154785
1960.869665	0.097072	0.259969	5824.713379
1960.870554	0.097075	0.259969	5911.013184
1961.858776	1.420360	0.272179	639.162109
1961.859681	1.918359	0.272179	2375.277344
1961.860574	1.880687	0.272179	4054.730957
1961.861542	1.002612	0.272179	5025.259766
1961.862441	0.102264	0.272179	5117.195312
1961.863339	0.097013	0.272179	5204.312988
1961.864264	0.097170	0.272179	5294.195801
1961.865172	0.097101	0.272179	5382.363281
1961.866075	0.097079	0.272179	5470.025391
1961.866963	0.097046	0.272179	5556.202148
1961.867919	0.097108	0.272179	5649.037598
1961.868817	0.097042	0.272179	5736.181641
1961.869718	0.097097	0.272179	5823.666016
1961.870602	0.097101	0.272179	5909.502930
1962.870476	1.419847	0.259510	628.992432
1962.871461	1.918374	0.259510	2518.590820
1962.872379	1.875809	0.259510	4240.583984
1962.873288	0.913594	0.259510	5071.040527
1962.874218	0.100371	0.259510	5164.385742
1962.875114	0.097057	0.259510	5251.348633
1962.876009	0.096984	0.259510	5338.148926
1962.876898	0.097068	0.259510	5424.442383
1962.877850	0.097123	0.259510	5516.903320
1962.878750	0.097006	0.259510	5604.208496
1962.879652	0.097002	0.259510	5691.704102
1962.880546	0.097061	0.259510	5778.476074
1962.881498	0.097148	0.259510	5870.961426
1962.882408	0.097031	0.259510	5959.259766
1963.873356	1.401848	0.270580	618.215027
1963.874312	1.918264	0.270580	2452.075439
1963.875225	1.877791	0.270580	4166.498047
1963.876139	0.983855	0.270580	5065.741211
1963.877027	0.102144	0.270580	5156.444824
1963.877968	0.097057	0.270580	5247.775391
1963.878885	0.097020	0.270580	5336.743164
1963.879781	0.097031	0.270580	5423.683105
1963.880715	0.097119	0.270580	5514.392578
1963.881620	0.097101	0.270580	5602.269043
1963.882519	0.097090	0.270580	5689.552734
1963.883404	0.097039	0.270580	5775.431641
1963.884356	0.097148	0.270580	5867.916992
1963.885259	0.097101	0.270580	5955.599121
1964.880638	1.439905	0.266745	704.113403
1964.881557	1.918304	0.266745	2467.035156
1964.882464	1.877505	0.266745	4169.932129
1964.883357	1.002114	0.266745	5064.820312
1964.884303	0.100258	0.266745	5159.664062
1964.885208	0.097020	0.266745	5247.467285
1964.886109	0.097042	0.266745	5334.902344
1964.886999	0.096991	0.266745	5421.224121
1964.887951	0.097174	0.266745	5513.733887
1964.888865	0.096995	0.266745	5602.387207
1964.889769	0.097042	0.266745	5690.113281
1964.890706	0.097134	0.266745	5781.127441
1964.891609	0.097046	0.266745	5868.759766
1964.892509	0.097050	0.266745	5956.104492
1965.888475	1.419928	0.274169	638.967590
1965.889378	1.918389	0.274169	2371.272705
1965.890297	1.880178	0.274169	4099.156250
1965.891240	0.997540	0.274169	5039.836914
1965.892144	0.101873	0.274169	5131.929687
1965.893045	0.096962	0.274169	5219.291992
1965.893982	0.097189	0.274169	5310.357910
1965.894883	0.097064	0.274169	5397.812988
1965.895783	0.097020	0.274169	5485.131348
1965.896671	0.097061	0.274169	5571.321289
1965.897602	0.097094	0.274169	5661.715332
1965.898515	0.097097	0.274169	5750.365234
1965.899410	0.097115	0.274169	5837.283691
1965.900330	0.097094	0.274169	5926.609863
1966.891608	1.423960	0.278733	635.086121
1966.892513	1.918283	0.278733	2371.131836
1966.893406	1.880383	0.278733	4050.313965
1966.894387	0.970741	0.278733	5002.610840
1966.895299	0.101279	0.278733	5094.977539
1966.896198	0.097028	0.278733	5182.205566
1966.897141	0.097134	0.278733	5273.802734
1966.898038	0.097072	0.278733	5360.875977
1966.898940	0.097009	0.278733	5448.378418
1966.899827	0.097031	0.278733	5534.445312
1966.900768	0.097057	0.278733	5625.775879
1966.901673	0.097017	0.278733	5713.575684
1966.902584	0.097017	0.278733	5801.958008
1966.903481	0.097079	0.278733	5889.037598
1967.903756	1.466272	0.287656	737.534790
1967.904677	1.918451	0.287656	2504.428223
1967.905586	1.876359	0.287656	4210.038086
1967.906484	0.956049	0.287656	5068.569824
1967.907435	0.099814	0.287656	5163.493164
1967.908339	0.097064	0.287656	5251.239258
1967.909229	0.097068	0.287656	5337.629883
1967.910148	0.097072	0.287656	5426.838867
1967.911062	0.097163	0.287656	5515.645996
1967.911974	0.096958	0.287656	5604.071777
1967.912874	0.097035	0.287656	5691.403320
1967.913807	0.097112	0.287656	5782.008789
1967.914708	0.097068	0.287656	5869.466797
1967.915611	0.097068	0.287656	5957.119141
1968.903690	1.466400	0.285533	740.532104
1968.904599	1.918286	0.285533	2484.254395
1968.905509	1.877358	0.285533	4192.650391
1968.906410	0.970210	0.285533	5066.809570
1968.907342	0.100367	0.285533	5160.352051
1968.908255	0.096954	0.285533	5248.871582
1968.909152	0.097090	0.285533	5335.960937
1968.910078	0.097086	0.285533	5425.862793
1968.910989	0.097126	0.285533	5514.345215
1968.911904	0.096991	0.285533	5603.091797
1968.912802	0.097046	0.285533	5690.239258
1968.913731	0.097064	0.285533	5780.412109
1968.914627	0.097061	0.285533	5867.378418
1968.915528	0.097061	0.285533	5954.830078
1969.918171	1.420957	0.296031	639.430664
1969.919069	1.918004	0.296031	2361.798340
1969.920003	1.880354	0.296031	4118.048828
1969.920926	1.019670	0.296031	5059.204590
1969.921836	0.102502	0.296031	5152.481934
1969.922724	0.097006	0.296031	5238.623047
1969.923657	0.097094	0.296031	5329.211426
1969.924561	0.097046	0.296031	5416.940918
1969.925466	0.096991	0.296031	5504.717773
1969.926351	0.096995	0.296031	5590.558105
1969.927299	0.097130	0.296031	5682.637695
1969.928205	0.097079	0.296031	5770.591309
1969.929096	0.097094	0.296031	5857.101562
1969.930020	0.097083	0.296031	5946.805664
1970.917712	1.404683	0.280163	618.060364
1970.918615	1.918132	0.280163	2350.133789
1970.919510	1.881621	0.280163	4034.184570
1970.920481	1.006849	0.280163	5011.835449
1970.921392	0.101997	0.280163	5104.754883
1970.922288	0.097006	0.280163	5191.671875
1970.923211	0.097031	0.280163	5281.231934
1970.924125	0.097126	0.280163	5370.005371
1970.925036	0.097079	0.280163	5458.444336
1970.925924	0.097072	0.280163	5544.644043
1970.926850	0.097090	0.280163	5634.549316
1970.927761	0.097123	0.280163	5723.028320
1970.928659	0.097083	0.280163	5810.208496
1970.929546	0.096969	0.280163	5896.220215
1971.931612	1.426329	0.298730	640.421814
1971.932514	1.917993	0.298730	2370.451660
1971.933476	1.877941	0.298730	4177.030273
1971.934399	0.952793	0.298730	5056.458008
1971.935300	0.101136	0.298730	5147.582031
1971.936184	0.096885	0.298730	5233.228027
1971.937117	0.097200	0.298730	5323.915527
1971.938029	0.096998	0.298730	5412.377930
1971.938927	0.097042	0.298730	5499.521973
1971.939856	0.097130	0.298730	5589.755859
1971.940763	0.097079	0.298730	5677.806152
1971.941666	0.097053	0.298730	5765.445312
1971.942554	0.097042	0.298730	5851.618652
1971.943496	0.097086	0.298730	5943.073730
1972.934990	1.391971	0.274403	615.251404
1972.935887	1.918070	0.274403	2335.760254
1972.936782	1.882127	0.274403	4020.263672
1972.937756	1.008366	0.274403	5002.411621
1972.938656	0.102675	0.274403	5094.818848
1972.939547	0.097053	0.274403	5181.293457
1972.940457	0.097083	0.274403	5269.638672
1972.941402	0.097039	0.274403	5361.340332
1972.942303	0.097042	0.274403	5448.775391
1972.943194	0.097057	0.274403	5535.252930
1972.944119	0.097072	0.274403	5625.043945
1972.945032	0.097017	0.274403	5713.620117
1972.945954	0.097042	0.274403	5803.093262
1972.946842	0.097020	0.274403	5889.247070
1973.944671	1.431020	0.298323	648.252258
1973.945570	1.918165	0.298323	2372.682861
1973.946464	1.881683	0.298323	4054.907715
1973.947418	1.019616	0.298323	5027.621094
1973.948329	0.102283	0.298323	5120.800781
1973.949221	0.096987	0.298323	5207.313477
1973.950151	0.097119	0.298323	5297.634277
1973.951050	0.097123	0.298323	5384.947754
1973.951943	0.097039	0.298323	5471.603027
1973.952829	0.097159	0.298323	5557.686523
1973.953759	0.097134	0.298323	5648.020996
1973.954675	0.097101	0.298323	5736.965332
1973.955579	0.097101	0.298323	5824.744629
1973.956467	0.097090	0.298323	5910.960449
1974.951131	1.415717	0.257009	634.241028
1974.952028	1.918103	0.257009	2354.779541
1974.952977	1.879614	0.257009	4138.533203
1974.953896	0.990527	0.257009	5048.827637
1974.954797	0.101906	0.257009	5140.644531
1974.955686	0.096914	0.257009	5226.801270
1974.956618	0.097130	0.257009	5317.326660
1974.957516	0.097046	0.257009	5404.473633
1974.958422	0.097086	0.257009	5492.433594
1974.959316	0.097130	0.257009	5579.268066
1974.960261	0.097097	0.257009	5671.024902
1974.961171	0.097086	0.257009	5759.373535
1974.962065	0.097112	0.257009	5846.191406
1974.963001	0.097126	0.257009	5937.101562
1975.956687	1.405404	0.296393	616.972412
1975.957600	1.917956	0.296393	2368.066650
1975.958505	1.880955	0.296393	4070.330566
1975.959451	1.039830	0.296393	5054.010254
1975.960346	0.103381	0.296393	5146.536621
1975.961237	0.096903	0.296393	5232.877441
1975.962128	0.097061	0.296393	5319.358398
1975.963072	0.097079	0.296393	5411.000977
1975.963973	0.097064	0.296393	5498.456055
1975.964877	0.097039	0.296393	5586.178711
1975.965766	0.097079	0.296393	5672.481934
1975.966715	0.097115	0.296393	5764.644531
1975.967617	0.097042	0.296393	5852.176758
1975.968511	0.097046	0.296393	5938.935547
1976.967546	1.462039	0.244468	712.012756
1976.968441	1.918315	0.244468	2428.905029
1976.969382	1.878025	0.244468	4196.126465
1976.970310	0.923701	0.244468	5053.321289
1976.971208	0.100573	0.244468	5143.635254
1976.972095	0.097068	0.244468	5229.734375
1976.973034	0.097200	0.244468	5321.004883
1976.973940	0.097075	0.244468	5408.955078
1976.974846	0.097072	0.244468	5496.901855
1976.975732	0.097152	0.244468	5582.978516
1976.976676	0.097159	0.244468	5674.696777
1976.977586	0.097068	0.244468	5763.028320
1976.978478	0.097119	0.244468	5849.658691
1976.979405	0.097115	0.244468	5939.684570
1977.967465	1.450898	0.296345	683.373169
1977.968370	1.918301	0.296345	2419.435303
1977.969314	1.877868	0.296345	4192.142578
1977.970246	0.924565	0.296345	5053.837891
1977.971142	0.100767	0.296345	5144.125000
1977.972035	0.097094	0.296345	5230.829590
1977.972983	0.097181	0.296345	5322.957520
1977.973885	0.097167	0.296345	5410.602051
1977.974782	0.097141	0.296345	5497.737793
1977.975677	0.097200	0.296345	5584.731445
1977.976600	0.097251	0.296345	5674.494141
1977.977506	0.097130	0.296345	5762.494141
1977.978399	0.097086	0.296345	5849.191895
1977.979337	0.097145	0.296345	5940.313477
1978.983631	1.412260	0.234764	627.043274
1978.984535	1.918055	0.234764	2360.965332
1978.985431	1.880852	0.234764	4046.208984
1978.986408	0.987920	0.234764	5011.406738
1978.987310	0.102063	0.234764	5103.467773
1978.988210	0.097046	0.234764	5190.809082
1978.989144	0.097291	0.234764	5281.679199
1978.990042	0.097262	0.234764	5369.020508
1978.990938	0.097112	0.234764	5456.032715
1978.991824	0.097134	0.234764	5542.093262
1978.992759	0.097200	0.234764	5632.975098
1978.993672	0.097137	0.234764	5721.661621
1978.994582	0.097104	0.234764	5810.026855
1978.995470	0.097020	0.234764	5896.180664
1979.977043	1.411890	0.304728	629.702820
1979.977939	1.918074	0.304728	2348.296875
1979.978852	1.880995	0.304728	4065.645264
1979.979807	1.006428	0.304728	5026.784180
1979.980717	0.102202	0.304728	5119.788086
1979.981610	0.097108	0.304728	5206.505859
1979.982539	0.097218	0.304728	5296.821289
1979.983433	0.097130	0.304728	5383.655762
1979.984330	0.097170	0.304728	5470.817383
1979.985216	0.097185	0.304728	5556.923340
1979.986161	0.097163	0.304728	5648.742676
1979.987058	0.097214	0.304728	5735.943848
1979.987960	0.097229	0.304728	5823.644531
1979.988852	0.097167	0.304728	5910.317383
1980.999649	1.422634	0.241234	635.917480
1981.000578	1.917894	0.241234	2417.641357
1981.001478	1.879900	0.241234	4109.551270
1981.002429	0.984657	0.241234	5045.959961
1981.003326	0.101689	0.241234	5137.175293
1981.004230	0.097090	0.241234	5224.944336
1981.005118	0.097269	0.241234	5311.319336
1981.006061	0.097288	0.241234	5403.061523
1981.006969	0.097229	0.241234	5491.345703
1981.007867	0.097247	0.241234	5578.673828
1981.008775	0.097236	0.241234	5666.964355
1981.009708	0.097280	0.241234	5757.727051
1981.010618	0.097207	0.241234	5846.185547
1981.011509	0.097211	0.241234	5932.800293
1981.989119	1.473955	0.319879	725.185852
1981.990037	1.918462	0.319879	2486.333984
1981.990947	1.877358	0.319879	4194.729980
1981.991846	0.972466	0.319879	5068.976562
1981.992793	0.100312	0.319879	5163.972656
1981.993712	0.097119	0.319879	5253.225098
1981.994609	0.097126	0.319879	5340.347656
1981.995539	0.097280	0.319879	5430.818359
1981.996442	0.097240	0.319879	5518.625977
1981.997346	0.097196	0.319879	5606.491211
1981.998237	0.097211	0.319879	5693.105957
1981.999176	0.097181	0.319879	5784.359375
1982.000080	0.097156	0.319879	5872.187988
1982.000982	0.097192	0.319879	5959.855469
1983.012824	1.423162	0.257097	636.153259
1983.013739	1.918096	0.257097	2391.210937
1983.014643	1.880482	0.257097	4091.166748
1983.015591	1.001547	0.257097	5040.632812
1983.016496	0.102008	0.257097	5132.950195
1983.017402	0.097086	0.257097	5220.910156
1983.018290	0.097119	0.257097	5307.151855
1983.019238	0.097295	0.257097	5399.387207
1983.020142	0.097170	0.257097	5487.229492
1983.021034	0.097196	0.257097	5573.928223
1983.021951	0.097156	0.257097	5663.020020
1983.022861	0.097251	0.257097	5751.518555
1983.023774	0.097178	0.257097	5840.241699
1983.024673	0.097222	0.257097	5927.644043
1984.002903	1.417189	0.322497	630.648987
1984.003803	1.918041	0.322497	2356.885742
1984.004697	1.881958	0.322497	4039.355957
1984.005662	1.019312	0.322497	5022.991699
1984.006567	0.102495	0.322497	5115.750000
1984.007475	0.097042	0.322497	5203.864258
1984.008365	0.097251	0.322497	5290.417480
1984.009305	0.097258	0.322497	5381.840332
1984.010212	0.097240	0.322497	5470.037109
1984.011103	0.097203	0.322497	5556.645508
1984.012047	0.097313	0.322497	5648.509277
1984.012948	0.097185	0.322497	5736.073242
1984.013852	0.097148	0.322497	5823.895508
1984.014743	0.097181	0.322497	5910.484375
1985.026519	1.419144	0.269746	632.938354
1985.027425	1.918143	0.269746	2370.776367
1985.028313	1.880669	0.269746	4040.810547
1985.029284	1.003792	0.269746	5015.492187
1985.030193	0.102103	0.269746	5108.304199
1985.031087	0.097130	0.269746	5195.138672
1985.032012	0.097094	0.269746	5284.950195
1985.032916	0.097225	0.269746	5372.841797
1985.033819	0.097174	0.269746	5460.589844
1985.034708	0.097163	0.269746	5546.967773
1985.035652	0.097159	0.269746	5638.686035
1985.036553	0.097192	0.269746	5726.256348
1985.037448	0.097185	0.269746	5813.236816
1985.038360	0.097247	0.269746	5901.926270
1986.016855	1.418214	0.324551	636.778137
1986.017750	1.918081	0.324551	2353.460449
1986.018696	1.879398	0.324551	4131.371094
1986.019619	1.007263	0.324551	5061.075195
1986.020510	0.102579	0.324551	5152.473633
1986.021402	0.097090	0.324551	5239.077637
1986.022340	0.097236	0.324551	5330.285156
1986.023248	0.097170	0.324551	5418.516113
1986.024153	0.097130	0.324551	5506.418945
1986.025082	0.097211	0.324551	5596.727539
1986.025982	0.097255	0.324551	5684.256836
1986.026895	0.097141	0.324551	5772.946777
1986.027793	0.097123	0.324551	5860.163086
1986.028740	0.097203	0.324551	5952.214844
1987.040721	1.399475	0.282121	618.567993
1987.041617	1.918136	0.282121	2337.217773
1987.042557	1.880958	0.282121	4105.318359
1987.043473	1.039504	0.282121	5057.504395
1987.044398	0.101836	0.282121	5151.702637
1987.045286	0.097130	0.282121	5237.954102
1987.046271	0.097229	0.282121	5333.724609
1987.047174	0.097163	0.282121	5421.462891
1987.048098	0.097192	0.282121	5511.268555
1987.048986	0.097192	0.282121	5597.575195
1987.049924	0.097159	0.282121	5688.710937
1987.050826	0.097174	0.282121	5776.361816
1987.051714	0.097214	0.282121	5862.687988
1987.052647	0.097247	0.282121	5953.419922
1988.032201	1.410253	0.322541	619.100952
1988.033152	1.917598	0.322541	2442.736328
1988.034068	1.878102	0.322541	4163.077637
1988.034964	1.014514	0.322541	5072.082520
1988.035908	0.102404	0.322541	5168.751465
1988.036817	0.097072	0.322541	5256.989258
1988.037736	0.097167	0.322541	5346.285645
1988.038627	0.097222	0.322541	5432.910156
1988.039576	0.097280	0.322541	5525.229004
1988.040474	0.097156	0.322541	5612.475098
1988.041363	0.097145	0.322541	5698.836914
1988.042266	0.097225	0.322541	5786.631348
1988.043196	0.097167	0.322541	5876.996582
1988.044100	0.097203	0.322541	5964.868652
1989.056340	1.413314	0.288478	630.338135
1989.057261	1.918542	0.288478	2397.315674
1989.058161	1.879973	0.288478	4089.291504
1989.059127	0.961212	0.288478	5017.822266
1989.060028	0.101191	0.288478	5108.995605
1989.060920	0.097137	0.288478	5195.642090
1989.061841	0.097288	0.288478	5285.244141
1989.062752	0.097200	0.288478	5373.792969
1989.063652	0.097134	0.288478	5461.213379
1989.064541	0.097192	0.288478	5547.617187
1989.065462	0.097189	0.288478	5637.127930
1989.066377	0.097145	0.288478	5726.015625
1989.067272	0.097185	0.288478	5812.996094
1989.068159	0.097203	0.288478	5899.215332
1990.047308	1.404188	0.321389	616.438660
1990.048201	1.916931	0.321389	2328.258301
1990.049184	1.877886	0.321389	4174.219727
1990.050106	0.953833	0.321389	5053.653809
1990.050996	0.101576	0.321389	5144.056152
1990.051948	0.097101	0.321389	5236.496094
1990.052858	0.097137	0.321389	5324.891113
1990.053750	0.097192	0.321389	5411.586914
1990.054638	0.097170	0.321389	5497.874023
1990.055570	0.097240	0.321389	5588.501465
1990.056484	0.097196	0.321389	5677.338867
1990.057394	0.097225	0.321389	5765.813965
1990.058290	0.097233	0.321389	5852.934570
1990.059226	0.097266	0.321389	5943.975098
1991.070923	1.402716	0.293135	615.792358
1991.071865	1.917521	0.293135	2422.096680
1991.072794	1.878311	0.293135	4167.047363
1991.073709	0.972557	0.293135	5056.937500
1991.074597	0.101935	0.293135	5147.455566
1991.075547	0.097211	0.293135	5239.805664
1991.076443	0.097207	0.293135	5326.903320
1991.077332	0.097203	0.293135	5413.316895
1991.078245	0.097211	0.293135	5502.070312
1991.079164	0.097244	0.293135	5591.437012
1991.080070	0.097218	0.293135	5679.516602
1991.080959	0.097178	0.293135	5765.907715
1991.081889	0.097178	0.293135	5856.283203
1991.082803	0.097214	0.293135	5945.137207
1992.062943	1.431987	0.317107	651.554199
1992.063850	1.918114	0.317107	2391.283691
1992.064744	1.880936	0.317107	4072.840576
1992.065723	0.954587	0.317107	5007.381836
1992.066625	0.101287	0.317107	5098.742187
1992.067549	0.097024	0.317107	5188.392090
1992.068437	0.097207	0.317107	5274.711914
1992.069390	0.097104	0.317107	5367.252441
1992.070283	0.097064	0.317107	5453.930664
1992.071170	0.097152	0.317107	5540.104492
1992.072105	0.097218	0.317107	5631.003418
1992.073012	0.097112	0.317107	5719.083984
1992.073932	0.097115	0.317107	5808.430176
1992.074822	0.097189	0.317107	5894.928223
1993.086552	1.419426	0.292832	640.161255
1993.087448	1.918363	0.292832	2359.014648
1993.088397	1.879248	0.292832	4142.420898
1993.089329	0.977640	0.292832	5053.581543
1993.090230	0.101583	0.292832	5145.107910
1993.091115	0.097046	0.292832	5230.993652
1993.092061	0.097200	0.292832	5322.944336
1993.092963	0.097141	0.292832	5410.565430
1993.093855	0.097185	0.292832	5497.254395
1993.094791	0.097159	0.292832	5588.195801
1993.095700	0.097196	0.292832	5676.546875
1993.096603	0.097083	0.292832	5764.212402
1993.097491	0.097163	0.292832	5850.493164
1993.098428	0.097306	0.292832	5941.668945
1994.077903	1.398420	0.316314	616.703430
1994.078857	1.918330	0.316314	2446.790283
1994.079762	1.878153	0.316314	4146.518555
1994.080687	0.975637	0.316314	5048.982910
1994.081584	0.101704	0.316314	5140.211426
1994.082550	0.097079	0.316314	5233.989746
1994.083447	0.097079	0.316314	5321.069336
1994.084340	0.097236	0.316314	5407.901367
1994.085265	0.097148	0.316314	5497.763672
1994.086180	0.097090	0.316314	5586.601074
1994.087101	0.097174	0.316314	5676.098633
1994.087992	0.097163	0.316314	5762.670898
1994.088944	0.097196	0.316314	5855.201660
1994.089840	0.097115	0.316314	5942.217285
1995.102174	1.429413	0.292844	641.806396
1995.103080	1.917605	0.292844	2379.156494
1995.104010	1.879058	0.292844	4126.680176
1995.104925	1.009145	0.292844	5050.048340
1995.105872	0.100737	0.292844	5145.446777
1995.106774	0.097148	0.292844	5233.074707
1995.107663	0.097211	0.292844	5319.495117
1995.108608	0.097236	0.292844	5411.383301
1995.109516	0.097222	0.292844	5499.660645
1995.110432	0.097196	0.292844	5588.692383
1995.111318	0.097207	0.292844	5674.817871
1995.112274	0.097181	0.292844	5767.723145
1995.113174	0.097123	0.292844	5855.133789
1995.114062	0.097196	0.292844	5941.443848
1996.091722	1.405730	0.317143	619.926880
1996.092712	1.917883	0.317143	2518.631348
1996.093641	1.875513	0.317143	4260.982422
1996.094544	0.899864	0.317143	5073.560059
1996.095507	0.098979	0.317143	5168.877441
1996.096400	0.097017	0.317143	5255.513184
1996.097315	0.097137	0.317143	5344.394043
1996.098215	0.097123	0.317143	5431.804687
1996.099161	0.097101	0.317143	5523.662109
1996.100075	0.097119	0.317143	5612.429199
1996.100970	0.097170	0.317143	5699.396484
1996.101905	0.097097	0.317143	5790.182129
1996.102823	0.097148	0.317143	5879.364258
1996.103738	0.097123	0.317143	5968.231445
1997.117257	1.387797	0.294814	599.528137
1997.118197	1.917074	0.294814	2401.577637
1997.119119	1.879296	0.294814	4134.288086
1997.120025	1.027742	0.294814	5065.421875
1997.120914	0.103506	0.294814	5157.438477
1997.121872	0.097042	0.294814	5250.404785
1997.122769	0.097163	0.294814	5337.560059
1997.123686	0.097178	0.294814	5426.671875
1997.124587	0.097119	0.294814	5514.176270
1997.125541	0.097123	0.294814	5606.831543
1997.126448	0.097156	0.294814	5694.951660
1997.127339	0.097152	0.294814	5781.514160
1997.128268	0.097145	0.294814	5871.761719
1997.129179	0.097104	0.294814	5960.224121
1998.104962	1.459369	0.314315	719.468872
1998.105863	1.918260	0.314315	2447.821533
1998.106785	1.877494	0.314315	4178.871094
1998.107692	0.969005	0.314315	5057.758789
1998.108641	0.100009	0.314315	5152.666992
1998.109537	0.097079	0.314315	5239.649414
1998.110430	0.097145	0.314315	5326.399902
1998.111365	0.097181	0.314315	5417.264648
1998.112274	0.097148	0.314315	5505.572754
1998.113167	0.097126	0.314315	5592.306641
1998.114060	0.097145	0.314315	5679.057129
1998.114996	0.097218	0.314315	5770.053223
1998.115897	0.097152	0.314315	5857.587402
1998.116814	0.097134	0.314315	5946.659180
1999.130874	1.418818	0.294170	690.964539
1999.131798	1.918400	0.294170	2463.565674
1999.132710	1.877703	0.294170	4176.030273
1999.133611	0.978457	0.294170	5057.620117
1999.134573	0.100042	0.294170	5153.859863
1999.135479	0.097039	0.294170	5241.776855
1999.136381	0.097170	0.294170	5329.424805
1999.137268	0.097192	0.294170	5415.634277
1999.138194	0.097214	0.294170	5505.654785
1999.139096	0.097123	0.294170	5593.259766
1999.139987	0.097148	0.294170	5679.818848
1999.140914	0.097236	0.294170	5769.957031
1999.141820	0.097134	0.294170	5857.960449
1999.142721	0.097123	0.294170	5945.468262
2000.117520	1.444658	0.302827	735.330994
2000.118437	1.918136	0.302827	2494.261719
2000.119346	1.876890	0.302827	4200.354492
2000.120240	0.957938	0.302827	5056.750977
2000.121184	0.099840	0.302827	5151.000000
2000.122100	0.097101	0.302827	5239.944336
2000.123000	0.097126	0.302827	5327.358398
2000.123888	0.097130	0.302827	5413.609863
2000.124828	0.097156	0.302827	5504.936035
2000.125727	0.097108	0.302827	5592.236328
2000.126617	0.097104	0.302827	5678.659180
2000.127563	0.097196	0.302827	5770.606445
2000.128464	0.097126	0.302827	5858.117187
2000.129356	0.097174	0.302827	5944.796387
2001.141474	1.439106	0.276244	654.793457
2001.142390	1.918052	0.276244	2411.729004
2001.143297	1.879706	0.276244	4116.622070
2001.144260	0.952229	0.276244	5033.618652
2001.145173	0.100847	0.276244	5125.691895
2001.146072	0.097163	0.276244	5213.041504
2001.146959	0.097167	0.276244	5299.228516
2001.147901	0.097233	0.276244	5390.821777
2001.148799	0.097181	0.276244	5478.090820
2001.149685	0.097145	0.276244	5564.161133
2001.150615	0.097236	0.276244	5654.590820
2001.151541	0.097196	0.276244	5744.594238
2001.152448	0.097200	0.276244	5832.754395
2001.153344	0.097181	0.276244	5919.829102
2002.130375	1.389086	0.300543	607.030457
2002.131337	1.917949	0.300543	2452.097656
2002.132254	1.877219	0.300543	4173.507812
2002.133182	0.938584	0.300543	5044.513672
2002.134067	0.101422	0.300543	5134.272461
2002.135028	0.097053	0.300543	5227.540527
2002.135923	0.097156	0.300543	5314.495117
2002.136813	0.097211	0.300543	5401.012695
2002.137738	0.097218	0.300543	5490.939453
2002.138637	0.097057	0.300543	5578.193359
2002.139555	0.097123	0.300543	5667.352051
2002.140452	0.097189	0.300543	5754.530273
2002.141400	0.097101	0.300543	5846.582031
2002.142303	0.097145	0.300543	5934.303711
2003.149518	1.397366	0.265871	619.033081
2003.150414	1.917583	0.265871	2337.187500
2003.151371	1.878951	0.265871	4135.343750
2003.152286	1.008765	0.265871	5058.363281
2003.153171	0.102700	0.265871	5149.252930
2003.154078	0.097119	0.265871	5237.339844
2003.155021	0.097163	0.265871	5328.964844
2003.155918	0.097174	0.265871	5416.129883
2003.156805	0.097189	0.265871	5502.336426
2003.157736	0.097218	0.265871	5592.846191
2003.158648	0.097159	0.265871	5681.455566
2003.159569	0.097141	0.265871	5770.922363
2003.160457	0.097123	0.265871	5857.167480
2003.161410	0.097181	0.265871	5949.781250
2004.143694	1.398831	0.302271	614.086609
2004.144664	1.916594	0.302271	2473.183105
2004.145579	1.877509	0.302271	4191.103516
2004.146479	0.976227	0.302271	5069.707520
2004.147401	0.101949	0.302271	5163.705078
2004.148326	0.097072	0.302271	5253.496094
2004.149234	0.097097	0.302271	5341.660156
2004.150125	0.097126	0.302271	5428.199707
2004.151058	0.097159	0.302271	5518.849609
2004.151970	0.097163	0.302271	5607.462402
2004.152887	0.097156	0.302271	5696.554199
2004.153777	0.097137	0.302271	5783.006348
2004.154734	0.097126	0.302271	5875.956543
2004.155633	0.097170	0.302271	5963.312500
2005.157380	1.421254	0.268268	709.205566
2005.158298	1.918491	0.268268	2470.380371
2005.159213	1.876780	0.268268	4187.633789
2005.160118	0.956177	0.268268	5052.973633
2005.161076	0.099943	0.268268	5148.718750
2005.161980	0.097123	0.268268	5236.517578
2005.162901	0.097167	0.268268	5326.008301
2005.163791	0.097211	0.268268	5412.525879
2005.164722	0.097196	0.268268	5503.015625
2005.165623	0.097196	0.268268	5590.589355
2005.166510	0.097207	0.268268	5676.812012
2005.167447	0.097335	0.268268	5768.015137
2005.168358	0.097152	0.268268	5856.520508
2005.169275	0.097123	0.268268	5945.582031
2006.159181	1.397604	0.307874	614.945679
2006.160079	1.917341	0.307874	2336.718262
2006.161052	1.878058	0.307874	4164.068359
2006.161960	0.975179	0.307874	5049.531250
2006.162873	0.101045	0.307874	5141.785156
2006.163776	0.097006	0.307874	5229.381348
2006.164721	0.097119	0.307874	5321.159180
2006.165620	0.097126	0.307874	5408.476074
2006.166511	0.097185	0.307874	5495.067871
2006.167442	0.097236	0.307874	5585.594727
2006.168354	0.097104	0.307874	5674.153809
2006.169271	0.097148	0.307874	5763.238770
2006.170161	0.097185	0.307874	5849.733398
2006.171118	0.097137	0.307874	5942.693848
2007.168592	1.406528	0.280546	627.311646
2007.169485	1.917854	0.280546	2339.955078
2007.170450	1.879091	0.280546	4153.277344
2007.171367	0.989557	0.280546	5060.701172
2007.172268	0.101796	0.280546	5152.418945
2007.173156	0.097072	0.280546	5238.618652
2007.174107	0.097185	0.280546	5331.041504
2007.175012	0.097101	0.280546	5418.917969
2007.175904	0.097141	0.280546	5505.567871
2007.176838	0.097083	0.280546	5596.243164
2007.177748	0.097196	0.280546	5684.691406
2007.178647	0.097083	0.280546	5771.968750
2007.179533	0.097148	0.280546	5858.042480
2007.180483	0.097214	0.280546	5950.395996
2008.176075	1.397948	0.313647	615.097107
2008.177036	1.918612	0.313647	2458.883301
2008.177956	1.877329	0.313647	4186.026367
2008.178871	0.957037	0.313647	5061.715332
2008.179768	0.101558	0.313647	5152.812500
2008.180712	0.097072	0.313647	5244.448242
2008.181611	0.097123	0.313647	5331.761719
2008.182503	0.097072	0.313647	5418.349609
2008.183430	0.097163	0.313647	5508.419922
2008.184342	0.097079	0.313647	5596.956055
2008.185245	0.097119	0.313647	5684.654785
2008.186135	0.097152	0.313647	5771.120117
2008.187090	0.097203	0.313647	5863.949219
2008.188009	0.097104	0.313647	5953.188477
2009.182156	1.394286	0.292260	610.697205
2009.183048	1.917429	0.292260	2321.043945
2009.184007	1.879545	0.292260	4123.527344
2009.184920	1.024589	0.292260	5058.976562
2009.185809	0.103304	0.292260	5150.814453
2009.186754	0.097196	0.292260	5242.664551
2009.187660	0.097196	0.292260	5330.724121
2009.188557	0.097192	0.292260	5417.905762
2009.189446	0.097174	0.292260	5504.293457
2009.190396	0.097181	0.292260	5596.615723
2009.191295	0.097156	0.292260	5683.958984
2009.192186	0.097174	0.292260	5770.541016
2009.193102	0.097240	0.292260	5859.612793
2009.194010	0.097181	0.292260	5947.853516
2010.193096	1.393008	0.323532	605.958374
2010.194071	1.918279	0.323532	2476.280273
2010.194970	1.878340	0.323532	4164.907715
2010.195869	1.005143	0.323532	5068.531250
2010.196793	0.102693	0.323532	5163.419434
2010.197718	0.097134	0.323532	5253.268066
2010.198623	0.097174	0.323532	5341.210449
2010.199513	0.097170	0.323532	5427.691895
2010.200453	0.097222	0.323532	5519.080078
2010.201365	0.097152	0.323532	5607.682617
2010.202282	0.097174	0.323532	5696.791016
2010.203169	0.097251	0.323532	5783.052734
2010.204114	0.097214	0.323532	5874.920410
2010.205006	0.097079	0.323532	5961.514648
2011.197403	1.418221	0.305590	639.617859
2011.198303	1.918227	0.305590	2366.022461
2011.199242	1.880028	0.305590	4131.368652
2011.200166	0.992479	0.305590	5048.419434
2011.201060	0.102122	0.305590	5139.716309
2011.201969	0.096976	0.305590	5227.867676
2011.202871	0.097200	0.305590	5315.541992
2011.203788	0.097112	0.305590	5404.593750
2011.204726	0.097115	0.305590	5495.687988
2011.205644	0.097079	0.305590	5584.806152
2011.206533	0.097104	0.305590	5671.131836
2011.207487	0.097119	0.305590	5763.783691
2011.208386	0.097068	0.305590	5851.047852
2011.209293	0.097104	0.305590	5939.121582
2012.209888	1.427490	0.331706	640.943115
2012.210815	1.917744	0.331706	2418.691895
2012.211713	1.879914	0.331706	4106.854980
2012.212677	0.958510	0.331706	5030.858398
2012.213575	0.101272	0.331706	5121.800781
2012.214480	0.097024	0.331706	5209.607422
2012.215373	0.097101	0.331706	5296.318359
2012.216312	0.097170	0.331706	5387.561523
2012.217217	0.097119	0.331706	5475.454102
2012.218116	0.097086	0.331706	5562.734375
2012.219035	0.097167	0.331706	5652.030762
2012.219922	0.097072	0.331706	5738.133301
2012.220880	0.097115	0.331706	5831.169922
2012.221775	0.097083	0.331706	5918.058594
2013.213273	1.424381	0.319359	636.698364
2013.214175	1.917766	0.319359	2366.523437
2013.215108	1.879636	0.319359	4120.224121
2013.216010	1.042969	0.319359	5060.981934
2013.216912	0.103828	0.319359	5154.634766
2013.217852	0.097079	0.319359	5245.888672
2013.218767	0.097130	0.319359	5334.762695
2013.219662	0.097189	0.319359	5421.746582
2013.220619	0.097130	0.319359	5514.700195
2013.221521	0.097101	0.319359	5602.285156
2013.222435	0.097145	0.319359	5691.075684
2013.223327	0.097126	0.319359	5777.712402
2013.224278	0.097108	0.319359	5870.062012
2013.225199	0.097083	0.319359	5959.475098
2014.225245	1.421411	0.334771	649.584900
2014.226142	1.918103	0.334771	2370.123291
2014.227103	1.877779	0.334771	4174.669434
2014.228024	0.941675	0.334771	5041.952148
2014.228937	0.100529	0.334771	5133.734863
2014.229838	0.097046	0.334771	5221.173340
2014.230781	0.097050	0.334771	5312.690918
2014.231701	0.097112	0.334771	5402.033691
2014.232591	0.097130	0.334771	5488.479492
2014.233538	0.097137	0.334771	5580.468750
2014.234441	0.097115	0.334771	5668.164062
2014.235363	0.097159	0.334771	5757.745117
2014.236248	0.097181	0.334771	5843.750488
2014.237192	0.097145	0.334771	5935.455078
2015.228507	1.419584	0.321365	648.749817
2015.229398	1.918520	0.321365	2358.151611
2015.230348	1.878779	0.321365	4142.992187
2015.231276	0.964446	0.321365	5037.998047
2015.232191	0.100770	0.321365	5130.202637
2015.233089	0.097050	0.321365	5217.353027
2015.234054	0.097126	0.321365	5311.080078
2015.234979	0.097064	0.321365	5400.864258
2015.235867	0.097170	0.321365	5487.151367
2015.236816	0.097108	0.321365	5579.307129
2015.237721	0.097126	0.321365	5667.206543
2015.238644	0.097134	0.321365	5756.860840
2015.239532	0.097134	0.321365	5843.115723
2015.240471	0.097090	0.321365	5934.283203
2016.238672	1.407191	0.331553	621.978516
2016.239620	1.916993	0.331553	2439.288086
2016.240529	1.878182	0.331553	4146.555664
2016.241463	0.963563	0.331553	5046.523926
2016.242352	0.101627	0.331553	5136.870605
2016.243316	0.097178	0.331553	5230.549805
2016.244230	0.097050	0.331553	5319.252930
2016.245152	0.097145	0.331553	5408.820312
2016.246038	0.097083	0.331553	5494.835449
2016.246988	0.097178	0.331553	5587.154297
2016.247879	0.097137	0.331553	5673.703613
2016.248765	0.097145	0.331553	5759.773926
2016.249699	0.097156	0.331553	5850.517578
2016.250599	0.097097	0.331553	5937.905273
2017.242851	1.449188	0.319097	673.872559
2017.243759	1.918260	0.319097	2415.653076
2017.244658	1.880010	0.319097	4105.781738
2017.245619	0.965991	0.319097	5034.099609
2017.246526	0.101034	0.319097	5125.737305
2017.247433	0.097039	0.319097	5213.751465
2017.248322	0.097108	0.319097	5300.080566
2017.249263	0.097185	0.319097	5391.531738
2017.250172	0.097086	0.319097	5479.783203
2017.251066	0.097104	0.319097	5566.594727
2017.251973	0.097167	0.319097	5654.725098
2017.252873	0.097145	0.319097	5742.155273
2017.253813	0.097097	0.319097	5833.426758
2017.254732	0.097115	0.319097	5922.675781
2018.249935	1.401716	0.324801	620.960266
2018.250832	1.917971	0.324801	2341.380371
2018.251755	1.881321	0.324801	4077.839355
2018.252693	1.027679	0.324801	5041.802734
2018.253601	0.102942	0.324801	5135.273926
2018.254496	0.097068	0.324801	5222.149902
2018.255412	0.097115	0.324801	5311.107910
2018.256301	0.097028	0.324801	5397.365234
2018.257238	0.097046	0.324801	5488.297363
2018.258157	0.097101	0.324801	5577.533203
2018.259053	0.097079	0.324801	5664.515625
2018.259985	0.097097	0.324801	5755.010254
2018.260903	0.097028	0.324801	5844.081543
2018.261824	0.097083	0.324801	5933.494629
2019.256274	1.416797	0.312595	629.057861
2019.257183	1.918359	0.312595	2372.846680
2019.258077	1.880793	0.312595	4054.275879
2019.259049	0.989498	0.312595	5016.068359
2019.259950	0.102151	0.312595	5108.106445
2019.260842	0.097126	0.312595	5194.743164
2019.261788	0.097203	0.312595	5286.697754
2019.262688	0.097200	0.312595	5374.177734
2019.263590	0.097083	0.312595	5461.746094
2019.264505	0.097163	0.312595	5550.650391
2019.265399	0.097236	0.312595	5637.579590
2019.266307	0.097181	0.312595	5725.820312
2019.267245	0.097159	0.312595	5816.956055
2019.268166	0.097156	0.312595	5906.436523
2020.259412	1.422136	0.311769	632.850647
2020.260321	1.918019	0.311769	2376.329590
2020.261215	1.880709	0.311769	4057.683594
2020.262185	0.986393	0.311769	5014.484375
2020.263089	0.101924	0.311769	5106.623535
2020.263985	0.096962	0.311769	5193.500977
2020.264902	0.096987	0.311769	5282.438477
2020.265788	0.097020	0.311769	5368.398437
2020.266728	0.096973	0.311769	5459.552734
2020.267630	0.097020	0.311769	5547.064941
2020.268549	0.097009	0.311769	5636.216309
2020.269435	0.097009	0.311769	5722.166504
2020.270387	0.096987	0.311769	5814.498535
2020.271311	0.097053	0.311769	5904.175781
2021.268816	1.419767	0.306219	633.216003
2021.269805	1.918011	0.306219	2530.129150
2021.270710	1.876392	0.306219	4228.263672
2021.271606	0.946615	0.306219	5076.430664
2021.272538	0.100979	0.306219	5170.542969
2021.273456	0.096877	0.306219	5259.476562
2021.274367	0.097042	0.306219	5347.881836
2021.275257	0.097035	0.306219	5434.242676
2021.276208	0.096991	0.306219	5526.480957
2021.277102	0.097086	0.306219	5613.275879
2021.278020	0.097031	0.306219	5702.350586
2021.278910	0.097002	0.306219	5788.682129
2021.279859	0.097024	0.306219	5880.757812
2021.280761	0.096965	0.306219	5968.220703
2022.269709	1.478155	0.307113	744.990356
2022.270614	1.918059	0.307113	2480.833740
2022.271539	1.876699	0.307113	4216.780762
2022.272434	0.947322	0.307113	5064.633789
2022.273396	0.099305	0.307113	5160.165527
2022.274312	0.096969	0.307113	5248.989258
2022.275209	0.097115	0.307113	5336.102051
2022.276144	0.097112	0.307113	5426.901367
2022.277058	0.097028	0.307113	5515.584473
2022.277971	0.097050	0.307113	5604.190918
2022.278865	0.097097	0.307113	5690.995605
2022.279814	0.096980	0.307113	5783.029785
2022.280733	0.097039	0.307113	5872.208008
2022.281625	0.097057	0.307113	5958.782715
2023.282567	1.490515	0.293054	745.257568
2023.283487	1.917638	0.293054	2509.484375
2023.284414	1.875670	0.293054	4248.230469
2023.285316	0.911459	0.293054	5070.366211
2023.286287	0.098826	0.293054	5166.326172
2023.287186	0.096969	0.293054	5253.501465
2023.288078	0.097046	0.293054	5340.066406
2023.289018	0.097163	0.293054	5431.399902
2023.289930	0.097119	0.293054	5519.972656
2023.290845	0.097017	0.293054	5608.742676
2023.291734	0.097042	0.293054	5695.013184
2023.292671	0.097090	0.293054	5785.986328
2023.293578	0.097053	0.293054	5874.013672
2023.294499	0.097002	0.293054	5963.352539
2024.281929	1.407506	0.302855	616.487671
2024.282890	1.917953	0.302855	2459.640381
2024.283799	1.877849	0.302855	4166.605469
2024.284697	1.008241	0.302855	5072.005859
2024.285630	0.102004	0.302855	5167.175781
2024.286540	0.096940	0.302855	5255.391113
2024.287459	0.097064	0.302855	5344.593262
2024.288352	0.097050	0.302855	5431.258301
2024.289308	0.096976	0.302855	5523.967773
2024.290203	0.097028	0.302855	5610.807617
2024.291097	0.097006	0.302855	5697.530762
2024.291999	0.097075	0.302855	5785.092773
2024.292929	0.096995	0.302855	5875.297852
2024.293830	0.097006	0.302855	5962.699707
2025.296722	1.409106	0.294347	624.234192
2025.297620	1.917682	0.294347	2346.312500
2025.298572	1.879303	0.294347	4135.409180
2025.299493	0.996801	0.294347	5053.462402
2025.300391	0.102184	0.294347	5145.223633
2025.301276	0.096951	0.294347	5231.024902
2025.302221	0.097031	0.294347	5322.719238
2025.303124	0.096951	0.294347	5410.265625
2025.304018	0.097086	0.294347	5497.060547
2025.304956	0.097061	0.294347	5588.103516
2025.305874	0.097013	0.294347	5677.161621
2025.306770	0.097017	0.294347	5764.088379
2025.307661	0.097101	0.294347	5850.604980
2025.308602	0.097031	0.294347	5941.911621
2026.295891	1.407250	0.299016	624.818848
2026.296800	1.917565	0.299016	2367.885254
2026.297704	1.880365	0.299016	4067.735352
2026.298669	0.980533	0.299016	5013.950195
2026.299565	0.102008	0.299016	5105.349609
2026.300456	0.096969	0.299016	5191.749023
2026.301365	0.097017	0.299016	5279.937012
2026.302301	0.097148	0.299016	5370.868164
2026.303203	0.097031	0.299016	5458.390137
2026.304093	0.097053	0.299016	5544.767578
2026.305032	0.097072	0.299016	5635.917969
2026.305941	0.096995	0.299016	5724.085937
2026.306842	0.097028	0.299016	5811.507812
2026.307731	0.097061	0.299016	5897.794434
2027.312008	1.461943	0.291837	728.047791
2027.312925	1.917792	0.291837	2486.662842
2027.313858	1.875963	0.291837	4236.936523
2027.314756	0.927308	0.291837	5069.659180
2027.315707	0.099152	0.291837	5163.952148
2027.316614	0.096962	0.291837	5251.896484
2027.317504	0.097064	0.291837	5338.283691
2027.318431	0.097090	0.291837	5428.286133
2027.319354	0.097006	0.291837	5517.822266
2027.320256	0.096987	0.291837	5605.304687
2027.321143	0.097053	0.291837	5691.391113
2027.322095	0.097046	0.291837	5783.778809
2027.323010	0.096962	0.291837	5872.498535
2027.323928	0.097123	0.291837	5961.657227
2028.310237	1.404177	0.308092	631.879761
2028.311137	1.917850	0.308092	2357.945068
2028.312073	1.880226	0.308092	4117.836426
2028.313001	0.994889	0.308092	5041.093262
2028.313923	0.101378	0.308092	5134.563965
2028.314811	0.096929	0.308092	5220.636719
2028.315756	0.097039	0.308092	5312.338379
2028.316660	0.097013	0.308092	5400.038086
2028.317553	0.097064	0.308092	5486.716309
2028.318486	0.097101	0.308092	5577.311523
2028.319392	0.097068	0.308092	5665.254883
2028.320317	0.096984	0.308092	5754.964844
2028.321205	0.097031	0.308092	5841.128418
2028.322147	0.097072	0.308092	5932.569824
2029.326161	1.400599	0.298182	619.064941
2029.327056	1.917030	0.298182	2334.806641
2029.328018	1.878113	0.298182	4141.551270
2029.328950	0.965182	0.298182	5041.100586
2029.329848	0.101272	0.298182	5132.042969
2029.330768	0.097039	0.298182	5221.318359
2029.331654	0.096995	0.298182	5307.255371
2029.332598	0.097031	0.298182	5398.853027
2029.333516	0.097053	0.298182	5487.947754
2029.334408	0.097090	0.298182	5574.551758
2029.335323	0.097064	0.298182	5663.365723
2029.336253	0.097020	0.298182	5753.594727
2029.337164	0.097039	0.298182	5841.997070
2029.338065	0.097053	0.298182	5929.441895
2030.324699	1.418295	0.307858	633.977722
2030.325621	1.917675	0.307858	2402.073730
2030.326521	1.880076	0.307858	4094.141846
2030.327490	0.972111	0.307858	5036.117187
2030.328386	0.101272	0.307858	5126.856934
2030.329280	0.097009	0.307858	5213.583008
2030.330168	0.097053	0.307858	5299.766113
2030.331099	0.097167	0.307858	5390.228516
2030.332003	0.097017	0.307858	5477.931641
2030.332906	0.096991	0.307858	5565.514648
2030.333810	0.097141	0.307858	5653.330078
2030.334739	0.097145	0.307858	5743.577637
2030.335651	0.097017	0.307858	5832.056641
2030.336542	0.097017	0.307858	5918.498535
2031.340234	1.405814	0.292135	618.558289
2031.341213	1.918499	0.292135	2496.768555
2031.342132	1.876740	0.292135	4221.492187
2031.343038	0.937562	0.292135	5070.923828
2031.343971	0.100928	0.292135	5165.089355
2031.344875	0.097068	0.292135	5252.838867
2031.345778	0.097068	0.292135	5340.491211
2031.346665	0.097039	0.292135	5426.564453
2031.347608	0.097090	0.292135	5518.120117
2031.348514	0.097097	0.292135	5606.090332
2031.349417	0.097039	0.292135	5693.716309
2031.350305	0.097017	0.292135	5779.867187
2031.351254	0.097119	0.292135	5872.033203
2031.352161	0.097072	0.292135	5960.077148
2032.339921	1.405968	0.305381	622.843872
2032.340860	1.917946	0.305381	2423.794678
2032.341788	1.877593	0.305381	4166.200684
2032.342706	0.964801	0.305381	5051.888184
2032.343601	0.101613	0.305381	5142.831543
2032.344536	0.097115	0.305381	5233.634277
2032.345444	0.097031	0.305381	5321.738770
2032.346340	0.097064	0.305381	5408.708496
2032.347275	0.097141	0.305381	5499.535645
2032.348182	0.097006	0.305381	5587.519531
2032.349077	0.097020	0.305381	5674.352539
2032.349965	0.097039	0.305381	5760.522949
2032.350903	0.097152	0.305381	5851.651855
2032.351807	0.097130	0.305381	5939.457520
2033.354474	1.435635	0.295286	657.520691
2033.355394	1.917773	0.295286	2421.872070
2033.356290	1.879475	0.295286	4105.881836
2033.357243	0.969690	0.295286	5029.996582
2033.358146	0.101349	0.295286	5121.514648
2033.359049	0.096995	0.295286	5209.100586
2033.359941	0.096980	0.295286	5295.606934
2033.360891	0.097108	0.295286	5387.859863
2033.361802	0.097064	0.295286	5476.285156
2033.362701	0.097141	0.295286	5563.615234
2033.363626	0.097156	0.295286	5653.484375
2033.364540	0.097174	0.295286	5742.301270
2033.365452	0.096973	0.295286	5830.740234
2033.366346	0.096984	0.295286	5917.443848
2034.355659	1.398131	0.304003	615.177673
2034.356551	1.916942	0.304003	2325.090088
2034.357522	1.878717	0.304003	4149.324219
2034.358438	0.983562	0.304003	5050.267090
2034.359340	0.101528	0.304003	5141.845703
2034.360274	0.097061	0.304003	5232.500488
2034.361183	0.097090	0.304003	5320.755371
2034.362082	0.097046	0.304003	5407.999512
2034.362972	0.096962	0.304003	5494.295410
2034.363921	0.097083	0.304003	5586.426758
2034.364823	0.096962	0.304003	5673.886230
2034.365720	0.096965	0.304003	5760.864258
2034.366603	0.097108	0.304003	5846.610840
2034.367552	0.097035	0.304003	5938.696777
2035.369285	1.386405	0.292591	597.540527
2035.370220	1.917158	0.292591	2390.083496
2035.371135	1.879735	0.292591	4110.041016
2035.372045	1.045137	0.292591	5061.115234
2035.372932	0.104019	0.292591	5153.379883
2035.373891	0.097130	0.292591	5246.527832
2035.374790	0.097028	0.292591	5333.755859
2035.375683	0.097039	0.292591	5420.411133
2035.376570	0.097050	0.292591	5506.494141
2035.377511	0.097196	0.292591	5597.955566
2035.378420	0.097031	0.292591	5686.156738
2035.379313	0.096995	0.292591	5772.772949
2035.380248	0.097017	0.292591	5863.483398
2035.381146	0.097050	0.292591	5950.633789
2036.371536	1.400105	0.306170	618.846436
2036.372434	1.917946	0.306170	2341.161621
2036.373377	1.880647	0.306170	4114.611816
2036.374299	1.020967	0.306170	5055.943359
2036.375198	0.103074	0.306170	5148.606445
2036.376087	0.096995	0.306170	5234.834473
2036.377042	0.097134	0.306170	5327.597168
2036.377938	0.097141	0.306170	5414.635742
2036.378845	0.097020	0.306170	5502.633301
2036.379736	0.097002	0.306170	5589.062012
2036.380685	0.097072	0.306170	5681.183105
2036.381595	0.097064	0.306170	5769.511719
2036.382494	0.097086	0.306170	5856.791992
2036.383415	0.097108	0.306170	5946.228516
2037.382344	1.397476	0.295491	612.094299
2037.383314	1.915909	0.295491	2470.526367
2037.384222	1.877450	0.295491	4175.250977
2037.385132	0.972231	0.295491	5059.981445
2037.386020	0.101730	0.295491	5150.317383
2037.386960	0.097020	0.295491	5241.516602
2037.387871	0.097086	0.295491	5329.961914
2037.388777	0.097083	0.295491	5417.918457
2037.389663	0.097097	0.295491	5503.946777
2037.390597	0.097163	0.295491	5594.697266
2037.391505	0.097072	0.295491	5682.838379
2037.392396	0.097053	0.295491	5769.312988
2037.393330	0.097112	0.295491	5860.015625
2037.394236	0.097185	0.295491	5948.065430
2038.387031	1.409773	0.304313	623.119690
2038.387947	1.917744	0.304313	2379.773437
2038.388860	1.880010	0.304313	4096.222656
2038.389796	1.023757	0.304313	5054.459473
2038.390705	0.102151	0.304313	5147.314453
2038.391616	0.096929	0.304313	5235.616699
2038.392506	0.097072	0.304313	5322.010254
2038.393440	0.097141	0.304313	5412.740234
2038.394343	0.097159	0.304313	5500.475098
2038.395245	0.097101	0.304313	5588.060059
2038.396134	0.097057	0.304313	5674.343750
2038.397082	0.097196	0.304313	5766.485352
2038.397986	0.097072	0.304313	5854.237793
2038.398887	0.097123	0.304313	5941.745605
2039.394512	1.408909	0.297481	625.555481
2039.395414	1.918033	0.297481	2355.621582
2039.396348	1.880431	0.297481	4111.944336
2039.397290	0.985474	0.297481	5040.260742
2039.398197	0.101708	0.297481	5132.509766
2039.399090	0.096940	0.297481	5219.077148
2039.400022	0.097119	0.297481	5309.592285
2039.400929	0.097035	0.297481	5397.603027
2039.401821	0.097028	0.297481	5484.151855
2039.402710	0.097024	0.297481	5570.406250
2039.403645	0.097108	0.297481	5661.202148
2039.404552	0.097028	0.297481	5749.206055
2039.405449	0.097090	0.297481	5836.295410
2039.406379	0.097039	0.297481	5926.541504
2040.402508	1.403705	0.310291	620.437500
2040.403479	1.918315	0.310291	2483.121582
2040.404396	1.877157	0.310291	4204.474609
2040.405294	0.966167	0.310291	5072.092773
2040.406214	0.101675	0.310291	5165.633789
2040.407130	0.097017	0.310291	5254.500977
2040.408033	0.097061	0.310291	5342.146484
2040.408927	0.097108	0.310291	5428.960937
2040.409860	0.097086	0.310291	5519.542480
2040.410764	0.097163	0.310291	5607.377930
2040.411665	0.097097	0.310291	5694.862305
2040.412551	0.097050	0.310291	5780.848145
2040.413495	0.097130	0.310291	5872.539062
2040.414402	0.097104	0.310291	5960.612793
2041.406469	1.472933	0.307705	737.939575
2041.407383	1.918154	0.307705	2491.132568
2041.408293	1.877080	0.307705	4199.275391
2041.409195	0.953888	0.307705	5059.682129
2041.410144	0.099650	0.307705	5154.249512
2041.411050	0.096936	0.307705	5242.073730
2041.411948	0.097002	0.307705	5329.181641
2041.412873	0.097064	0.307705	5418.965820
2041.413784	0.097075	0.307705	5507.401367
2041.414681	0.097039	0.307705	5594.444824
2041.415569	0.097053	0.307705	5680.627930
2041.416522	0.097013	0.307705	5773.081055
2041.417415	0.096980	0.307705	5859.684082
2041.418316	0.097013	0.307705	5947.092773
2042.418003	1.402430	0.314690	624.081543
2042.418895	1.917696	0.314690	2334.666748
2042.419853	1.879120	0.314690	4134.863281
2042.420767	1.005267	0.314690	5053.677734
2042.421662	0.102202	0.314690	5145.148437
2042.422558	0.096995	0.314690	5232.055664
2042.423504	0.097053	0.314690	5323.868164
2042.424410	0.097031	0.314690	5411.778320
2042.425306	0.097101	0.314690	5498.780762
2042.426234	0.097112	0.314690	5588.900391
2042.427136	0.097101	0.314690	5676.485352
2042.428032	0.096995	0.314690	5763.392578
2042.428919	0.097075	0.314690	5849.498047
2042.429868	0.097174	0.314690	5941.716309
2043.419869	1.427633	0.309884	641.007263
2043.420792	1.917858	0.309884	2411.189941
2043.421700	1.879607	0.309884	4117.873047
2043.422641	1.000525	0.309884	5059.367187
2043.423549	0.101166	0.309884	5151.225586
2043.424451	0.096907	0.309884	5238.635254
2043.425347	0.097050	0.309884	5325.591797
2043.426282	0.096969	0.309884	5416.257812
2043.427186	0.096998	0.309884	5503.944336
2043.428086	0.097075	0.309884	5591.312012
2043.428970	0.097075	0.309884	5677.126465
2043.429908	0.097119	0.309884	5768.224121
2043.430815	0.097013	0.309884	5856.214844
2043.431714	0.097031	0.309884	5943.445801
2044.433379	1.417463	0.322884	635.023621
2044.434301	1.917909	0.322884	2403.335449
2044.435194	1.880376	0.322884	4082.511230
2044.436145	0.997987	0.322884	5031.596680
2044.437045	0.102089	0.322884	5123.476562
2044.437943	0.096991	0.322884	5210.574219
2044.438832	0.097017	0.322884	5296.821777
2044.439783	0.097072	0.322884	5389.136719
2044.440686	0.097137	0.322884	5476.852051
2044.441582	0.097020	0.322884	5563.782227
2044.442506	0.097115	0.322884	5653.517090
2044.443416	0.097061	0.322884	5741.842285
2044.444323	0.097057	0.322884	5829.873047
2044.445213	0.097046	0.322884	5916.244141
2045.434824	1.400702	0.315206	612.106750
2045.435767	1.916554	0.315206	2419.417236
2045.436685	1.878856	0.315206	4144.207031
2045.437609	0.990289	0.315206	5059.234375
2045.438493	0.102253	0.315206	5149.626465
2045.439430	0.097020	0.315206	5240.534668
2045.440338	0.097097	0.315206	5328.698730
2045.441242	0.097002	0.315206	5416.388672
2045.442131	0.097039	0.315206	5502.655762
2045.443079	0.097057	0.315206	5594.665527
2045.443987	0.097042	0.315206	5682.779785
2045.444885	0.097086	0.315206	5769.963379
2045.445808	0.097097	0.315206	5859.583984
2045.446708	0.097170	0.315206	5947.037109
2046.447443	1.410707	0.332971	630.585937
2046.448344	1.918037	0.332971	2358.737305
2046.449297	1.878790	0.332971	4149.224609
2046.450219	0.976571	0.332971	5049.623047
2046.451120	0.101733	0.332971	5141.284668
2046.452009	0.097031	0.332971	5227.545410
2046.452955	0.097064	0.332971	5319.368164
2046.453867	0.097115	0.332971	5407.937500
2046.454756	0.097061	0.332971	5494.224121
2046.455685	0.097090	0.332971	5584.420410
2046.456586	0.097126	0.332971	5671.931152
2046.457497	0.097072	0.332971	5760.363281
2046.458395	0.097079	0.332971	5847.540039
2046.459320	0.097042	0.332971	5937.304199
