time (s)	coil I (A)	last det (V)	int current (uC)
3719.985884	1.432504	0.251655	646.059143
3719.986800	1.918685	0.251655	2403.574707
3719.987702	1.880489	0.251655	4099.776367
3719.988645	1.823221	0.251655	5819.074219
3719.989556	1.765272	0.251655	7427.237305
3719.990470	1.710293	0.251655	8990.445312
3719.991376	1.656870	0.251655	10491.569336
3719.992324	1.605297	0.251655	12013.390625
3719.993246	1.555232	0.251655	13447.314453
3719.994142	1.508639	0.251655	14799.054687
3719.995078	1.437664	0.251655	16144.708008
3719.996002	0.278903	0.251655	16402.414062
3719.996907	0.097017	0.251655	16490.214844
3719.997795	0.097119	0.251655	16576.457031
3719.998744	0.097284	0.251655	16668.779297
3719.999649	0.097255	0.251655	16756.794922
3720.000551	0.097156	0.251655	16844.429687
3720.001438	0.097189	0.251655	16930.636719
3720.002380	0.097134	0.251655	17022.136719
3720.003283	0.097141	0.251655	17109.855469
3720.004171	0.097126	0.251655	17196.103516
3720.982239	1.424440	0.278874	633.875671
3720.983159	1.918356	0.278874	2398.762939
3720.984064	1.880383	0.278874	4100.509766
3720.985006	1.823372	0.278874	5818.125977
3720.985926	1.764558	0.278874	7441.519531
3720.986839	1.709513	0.278874	9002.304687
3720.987734	1.657174	0.278874	10485.475586
3720.988694	1.604696	0.278874	12025.983398
3720.989602	1.555239	0.278874	13438.140625
3720.990506	1.508643	0.278874	14801.953125
3720.991412	1.442490	0.278874	16108.849609
3720.992346	0.291914	0.278874	16381.497070
3720.993252	0.097097	0.278874	16469.466797
3720.994148	0.097218	0.278874	16556.574219
3720.995082	0.097273	0.278874	16647.427734
3720.995984	0.097306	0.278874	16735.197266
3720.996887	0.097266	0.278874	16823.027344
3720.997773	0.097211	0.278874	16909.156250
3720.998719	0.097310	0.278874	17001.210937
3720.999624	0.097288	0.278874	17089.255859
3721.000515	0.097233	0.278874	17175.890625
3722.003162	1.426531	0.258882	647.644958
3722.004056	1.918634	0.258882	2362.903809
3722.005003	1.879925	0.258882	4143.193359
3722.005915	1.823635	0.258882	5806.348633
3722.006819	1.766056	0.258882	7402.863281
3722.007712	1.711666	0.258882	8931.380859
3722.008649	1.657573	0.258882	10484.527344
3722.009571	1.606600	0.258882	11965.812500
3722.010475	1.557656	0.258882	13373.933594
3722.011403	1.510214	0.258882	14775.412109
3722.012318	1.455802	0.258882	16107.470703
3722.013238	0.319321	0.258882	16401.246094
3722.014138	0.097075	0.258882	16488.613281
3722.015082	0.097181	0.258882	16580.351562
3722.015978	0.097251	0.258882	16667.488281
3722.016875	0.097229	0.258882	16754.703125
3722.017758	0.097262	0.258882	16840.585937
3722.018694	0.097156	0.258882	16931.523437
3722.019610	0.097123	0.258882	17020.488281
3722.020507	0.097214	0.258882	17107.689453
3722.021430	0.097207	0.258882	17197.412109
3722.995930	1.412809	0.289106	632.938354
3722.996835	1.918374	0.289106	2369.066895
3722.997730	1.880702	0.289106	4052.294922
3722.998679	1.823749	0.289106	5783.032227
3722.999604	1.765082	0.289106	7415.732910
3723.000507	1.710648	0.289106	8960.448242
3723.001440	1.657229	0.289106	10506.642578
3723.002352	1.606025	0.289106	11971.337891
3723.003263	1.556858	0.289106	13389.635742
3723.004162	1.510159	0.289106	14747.268555
3723.005123	1.444153	0.289106	16135.099609
3723.006038	0.292592	0.289106	16402.820312
3723.006934	0.097083	0.289106	16489.806641
3723.007821	0.097178	0.289106	16576.003906
3723.008768	0.097328	0.289106	16668.173828
3723.009681	0.097192	0.289106	16756.910156
3723.010579	0.097174	0.289106	16844.171875
3723.011498	0.097247	0.289106	16933.542969
3723.012400	0.097335	0.289106	17021.339844
3723.013300	0.097255	0.289106	17108.869141
3723.014186	0.097192	0.289106	17194.982422
3724.020676	1.391316	0.262640	608.005066
3724.021658	1.918674	0.262640	2492.143311
3724.022569	1.877168	0.262640	4202.243164
3724.023475	1.821529	0.262640	5852.548828
3724.024368	1.763848	0.262640	7427.664551
3724.025311	1.707978	0.262640	9038.288086
3724.026224	1.655398	0.262640	10549.666016
3724.027117	1.605718	0.262640	11983.572266
3724.028052	1.555825	0.262640	13438.268555
3724.028968	1.507804	0.262640	14819.416992
3724.029875	1.448470	0.262640	16133.179687
3724.030773	0.316077	0.262640	16417.015625
3724.031727	0.097203	0.262640	16509.748047
3724.032626	0.097233	0.262640	16597.160156
3724.033526	0.097170	0.262640	16684.613281
3724.034419	0.097284	0.262640	16771.488281
3724.035352	0.097346	0.262640	16862.312500
3724.036246	0.097148	0.262640	16949.164062
3724.037142	0.097222	0.262640	17036.275391
3724.038082	0.097222	0.262640	17127.664062
3724.038989	0.097339	0.262640	17215.951172
3725.010889	1.410037	0.292707	617.596069
3725.011862	1.918795	0.292707	2484.583740
3725.012786	1.876626	0.292707	4218.585937
3725.013693	1.820768	0.292707	5870.022461
3725.014641	1.761661	0.292707	7540.077148
3725.015549	1.706495	0.292707	9089.575195
3725.016450	1.654340	0.292707	10580.134766
3725.017340	1.604480	0.292707	12008.122070
3725.018289	1.553342	0.292707	13482.244141
3725.019204	1.506086	0.292707	14860.313477
3725.020113	1.433756	0.292707	16163.597656
3725.021034	0.277555	0.292707	16419.226562
3725.021972	0.097079	0.292707	16510.287109
3725.022883	0.097262	0.292707	16598.892578
3725.023783	0.097225	0.292707	16686.394531
3725.024728	0.097262	0.292707	16778.306641
3725.025627	0.097240	0.292707	16865.724609
3725.026526	0.097225	0.292707	16953.130859
3725.027410	0.097222	0.292707	17039.074219
3725.028353	0.097255	0.292707	17130.785156
3725.029264	0.097192	0.292707	17219.328125
3726.036430	1.393341	0.272848	608.890015
3726.037325	1.917466	0.272848	2325.021973
3726.038291	1.878790	0.272848	4139.933594
3726.039207	1.822690	0.272848	5809.518066
3726.040109	1.765470	0.272848	7401.971680
3726.041040	1.710238	0.272848	8994.203125
3726.041950	1.656716	0.272848	10501.814453
3726.042864	1.606194	0.272848	11969.875977
3726.043764	1.557499	0.272848	13371.625000
3726.044700	1.508914	0.272848	14783.967773
3726.045615	1.449089	0.272848	16109.884766
3726.046526	0.315121	0.272848	16396.958984
3726.047416	0.097101	0.272848	16483.378906
3726.048376	0.097299	0.272848	16576.785156
3726.049280	0.097233	0.272848	16664.683594
3726.050180	0.097233	0.272848	16752.193359
3726.051107	0.097354	0.272848	16842.439453
3726.052009	0.097295	0.272848	16930.199219
3726.052905	0.097203	0.272848	17017.292969
3726.053792	0.097185	0.272848	17103.496094
3726.054733	0.097277	0.272848	17195.033203
3727.024652	1.487556	0.291153	734.852722
3727.025567	1.918601	0.291153	2490.372803
3727.026485	1.876842	0.291153	4213.313965
3727.027385	1.820530	0.291153	5851.791016
3727.028349	1.760603	0.291153	7549.012207
3727.029266	1.705668	0.291153	9113.109375
3727.030160	1.653805	0.291153	10591.611328
3727.031108	1.602026	0.291153	12110.332031
3727.032020	1.552610	0.291153	13526.312500
3727.032922	1.505801	0.291153	14884.544922
3727.033814	1.421935	0.291153	16152.911133
3727.034759	0.248577	0.291153	16387.816406
3727.035660	0.097061	0.291153	16475.267578
3727.036563	0.097258	0.291153	16563.091797
3727.037461	0.097284	0.291153	16650.453125
3727.038394	0.097255	0.291153	16741.191406
3727.039300	0.097255	0.291153	16829.304687
3727.040193	0.097196	0.291153	16916.101562
3727.041125	0.097302	0.291153	17006.787109
3727.042025	0.097214	0.291153	17094.279297
3727.042918	0.097207	0.291153	17181.085937
3728.051198	1.484231	0.284655	722.820496
3728.052120	1.918224	0.284655	2491.422852
3728.053029	1.877179	0.284655	4197.778320
3728.053927	1.821464	0.284655	5833.452637
3728.054880	1.761947	0.284655	7512.587891
3728.055795	1.706638	0.284655	9074.162109
3728.056697	1.654548	0.284655	10566.564453
3728.057634	1.603535	0.284655	12069.077148
3728.058545	1.553990	0.284655	13484.762695
3728.059449	1.506610	0.284655	14846.738281
3728.060347	1.433181	0.284655	16133.735352
3728.061315	0.253528	0.284655	16379.150391
3728.062210	0.097064	0.284655	16466.023437
3728.063113	0.097218	0.284655	16553.810547
3728.064020	0.097196	0.284655	16641.966797
3728.064962	0.097321	0.284655	16733.642578
3728.065870	0.097211	0.284655	16821.910156
3728.066768	0.097200	0.284655	16909.195312
3728.067694	0.097185	0.284655	16999.189453
3728.068594	0.097251	0.284655	17086.714844
3728.069496	0.097233	0.284655	17174.417969
3729.038283	1.401042	0.291978	613.656616
3729.039200	1.917883	0.291978	2372.355469
3729.040105	1.880555	0.291978	4074.258057
3729.041042	1.823943	0.291978	5783.292480
3729.041951	1.765781	0.291978	7388.387695
3729.042859	1.710912	0.291978	8941.895508
3729.043756	1.658167	0.291978	10429.270508
3729.044710	1.606209	0.291978	11961.593750
3729.045625	1.556869	0.291978	13386.128906
3729.046519	1.510023	0.291978	14736.089844
3729.047458	1.455685	0.291978	16102.977539
3729.048369	0.323716	0.291978	16397.882812
3729.049277	0.096973	0.291978	16485.933594
3729.050163	0.097137	0.291978	16571.998047
3729.051094	0.097218	0.291978	16662.507812
3729.051994	0.097178	0.291978	16749.968750
3729.052908	0.097079	0.291978	16838.699219
3729.053802	0.097178	0.291978	16925.576172
3729.054746	0.097192	0.291978	17017.326172
3729.055655	0.097130	0.291978	17105.617187
3729.056545	0.097170	0.291978	17192.099609
3730.066896	1.407880	0.293727	625.098511
3730.067842	1.918140	0.293727	2439.658691
3730.068762	1.877791	0.293727	4167.226074
3730.069669	1.821995	0.293727	5819.775391
3730.070599	1.763741	0.293727	7460.054687
3730.071519	1.707583	0.293727	9031.031250
3730.072438	1.654596	0.293727	10551.604492
3730.073345	1.604407	0.293727	12006.801758
3730.074294	1.553668	0.293727	13481.232422
3730.075198	1.506727	0.293727	14843.314453
3730.076105	1.439297	0.293727	16148.756836
3730.077000	0.293730	0.293727	16411.646484
3730.077935	0.097156	0.293727	16502.486328
3730.078843	0.097255	0.293727	16590.792969
3730.079741	0.097277	0.293727	16678.146484
3730.080667	0.097203	0.293727	16768.156250
3730.081571	0.097255	0.293727	16856.074219
3730.082468	0.097189	0.293727	16943.251953
3730.083360	0.097185	0.293727	17029.941406
3730.084314	0.097346	0.293727	17122.810547
3730.085216	0.097262	0.293727	17210.541016
3731.053260	1.392122	0.282754	609.749268
3731.054216	1.918202	0.282754	2443.550293
3731.055122	1.878633	0.282754	4145.591797
3731.056031	1.822709	0.282754	5802.434082
3731.056925	1.765316	0.282754	7380.626953
3731.057867	1.709125	0.282754	8990.622070
3731.058788	1.655383	0.282754	10515.230469
3731.059691	1.605970	0.282754	11965.421875
3731.060632	1.556169	0.282754	13429.777344
3731.061545	1.507921	0.282754	14806.509766
3731.062451	1.452026	0.282754	16122.045898
3731.063344	0.326239	0.282754	16413.376953
3731.064295	0.097086	0.282754	16505.705078
3731.065196	0.097207	0.282754	16593.289062
3731.066094	0.097159	0.282754	16680.539062
3731.066979	0.097104	0.282754	16766.476562
3731.067931	0.097255	0.282754	16859.062500
3731.068840	0.097145	0.282754	16947.367187
3731.069737	0.097152	0.282754	17034.511719
3731.070662	0.097258	0.282754	17124.476562
3731.071566	0.097196	0.282754	17212.341797
3732.081622	1.411505	0.297481	629.531250
3732.082525	1.917784	0.297481	2361.290527
3732.083414	1.881258	0.297481	4033.729492
3732.084356	1.824397	0.297481	5752.311523
3732.085277	1.766114	0.297481	7378.902832
3732.086181	1.711414	0.297481	8926.020508
3732.087120	1.657782	0.297481	10482.677734
3732.088040	1.606252	0.297481	11960.429687
3732.088956	1.556814	0.297481	13386.471680
3732.089850	1.510382	0.297481	14736.752930
3732.090805	1.449756	0.297481	16121.269531
3732.091720	0.304578	0.297481	16399.958984
3732.092623	0.097042	0.297481	16487.587891
3732.093510	0.097152	0.297481	16573.761719
3732.094443	0.097203	0.297481	16664.453125
3732.095358	0.097236	0.297481	16753.423828
3732.096258	0.097148	0.297481	16840.857422
3732.097198	0.097196	0.297481	16932.222656
3732.098106	0.097123	0.297481	17020.410156
3732.099005	0.097123	0.297481	17107.722656
3732.099892	0.097152	0.297481	17193.896484
3733.068508	1.428054	0.271788	648.336548
3733.069408	1.917909	0.271788	2374.454590
3733.070355	1.878999	0.271788	4153.866699
3733.071276	1.821617	0.271788	5831.576172
3733.072181	1.764225	0.271788	7428.199707
3733.073077	1.710198	0.271788	8960.537109
3733.074036	1.654834	0.271788	10547.523437
3733.074940	1.604564	0.271788	11998.049805
3733.075849	1.555580	0.271788	13412.072266
3733.076738	1.508712	0.271788	14753.317383
3733.077688	1.447174	0.271788	16128.132812
3733.078604	0.298239	0.271788	16401.318359
3733.079497	0.097006	0.271788	16487.945312
3733.080418	0.097218	0.271788	16577.482422
3733.081325	0.097218	0.271788	16665.658203
3733.082222	0.097156	0.271788	16752.806641
3733.083109	0.097207	0.271788	16839.029297
3733.084056	0.097200	0.271788	16931.078125
3733.084953	0.097222	0.271788	17018.285156
3733.085854	0.097222	0.271788	17105.882812
3733.086740	0.097214	0.271788	17192.015625
3734.097112	1.409103	0.292945	625.641663
3734.098005	1.916876	0.292945	2337.412109
3734.098947	1.878431	0.292945	4106.894531
3734.099882	1.821815	0.292945	5810.291504
3734.100783	1.764086	0.292945	7399.732910
3734.101740	1.707187	0.292945	9033.511719
3734.102648	1.654468	0.292945	10535.768555
3734.103575	1.603557	0.292945	12022.265625
3734.104475	1.554576	0.292945	13421.384766
3734.105436	1.505219	0.292945	14867.899414
3734.106359	1.417273	0.292945	16176.041992
3734.107254	0.260197	0.292945	16408.917969
3734.108203	0.097068	0.292945	16501.035156
3734.109100	0.097167	0.292945	16588.193359
3734.110012	0.097189	0.292945	16676.830078
3734.110913	0.097211	0.292945	16764.416016
3734.111875	0.097214	0.292945	16857.935547
3734.112776	0.097185	0.292945	16945.500000
3734.113665	0.097185	0.292945	17031.898437
3734.114598	0.097240	0.292945	17122.623047
3734.115504	0.097137	0.292945	17210.628906
3735.083718	1.396699	0.265416	606.167419
3735.084683	1.917620	0.265416	2456.670410
3735.085600	1.876721	0.265416	4177.623535
3735.086529	1.820039	0.265416	5868.439941
3735.087423	1.762753	0.265416	7444.340820
3735.088380	1.705741	0.265416	9076.734375
3735.089282	1.653571	0.265416	10568.254883
3735.090173	1.604300	0.265416	11997.686523
3735.091116	1.554148	0.265416	13463.248047
3735.092035	1.505797	0.265416	14847.076172
3735.092955	1.425568	0.265416	16158.598633
3735.093857	0.272000	0.265416	16403.941406
3735.094808	0.097068	0.265416	16496.253906
3735.095710	0.097075	0.265416	16583.816406
3735.096631	0.097159	0.265416	16673.300781
3735.097518	0.097185	0.265416	16759.503906
3735.098467	0.097159	0.265416	16851.708984
3735.099358	0.097159	0.265416	16938.277344
3735.100244	0.097200	0.265416	17024.396484
3735.101181	0.097266	0.265416	17115.535156
3735.102090	0.097137	0.265416	17203.833984
3736.111585	1.426018	0.287712	643.134094
3736.112482	1.917470	0.287712	2363.104248
3736.113378	1.881065	0.287712	4048.538086
3736.114323	1.824335	0.287712	5772.534180
3736.115237	1.765536	0.287712	7386.233887
3736.116157	1.709883	0.287712	8959.326172
3736.117061	1.657354	0.287712	10457.574219
3736.118020	1.604604	0.287712	11996.389648
3736.118931	1.555294	0.287712	13413.262695
3736.119827	1.508749	0.287712	14765.101562
3736.120774	1.444167	0.287712	16132.728516
3736.121705	0.285648	0.287712	16398.667969
3736.122594	0.097141	0.287712	16485.027344
3736.123485	0.097240	0.287712	16571.667969
3736.124423	0.097269	0.287712	16662.906250
3736.125330	0.097200	0.287712	16751.066406
3736.126224	0.097225	0.287712	16837.986328
3736.127151	0.097258	0.287712	16928.144531
3736.128058	0.097207	0.287712	17016.310547
3736.128974	0.097211	0.287712	17105.355469
3736.129866	0.097156	0.287712	17192.017578
3737.099214	1.400892	0.255933	616.392578
3737.100104	1.916631	0.255933	2322.194092
3737.101072	1.878369	0.255933	4140.455078
3737.101984	1.822493	0.255933	5802.568359
3737.102878	1.765569	0.255933	7380.986816
3737.103829	1.709253	0.255933	9006.486328
3737.104740	1.655332	0.255933	10514.494141
3737.105652	1.604799	0.255933	11978.070312
3737.106550	1.556118	0.255933	13375.464844
3737.107495	1.507610	0.255933	14800.156250
3737.108416	1.441882	0.255933	16128.129883
3737.109327	0.292694	0.255933	16394.773437
3737.110225	0.097053	0.255933	16481.927734
3737.111160	0.097185	0.255933	16572.794922
3737.112059	0.097196	0.255933	16660.173828
3737.112946	0.097178	0.255933	16746.371094
3737.113896	0.097240	0.255933	16838.750000
3737.114798	0.097181	0.255933	16926.408203
3737.115700	0.097244	0.255933	17014.121094
3737.116591	0.097196	0.255933	17100.722656
3737.117520	0.097313	0.255933	17191.126953
3738.127068	1.423242	0.281545	633.342773
3738.127990	1.917275	0.281545	2401.070557
3738.128898	1.879281	0.281545	4107.457520
3738.129832	1.822954	0.281545	5810.096680
3738.130750	1.764225	0.281545	7429.655273
3738.131653	1.709359	0.281545	8973.207031
3738.132551	1.657291	0.281545	10461.454102
3738.133490	1.606132	0.281545	11969.611328
3738.134404	1.556287	0.281545	13392.057617
3738.135310	1.509434	0.281545	14759.604492
3738.136200	1.453315	0.281545	16053.055664
3738.137150	0.320391	0.281545	16357.426758
3738.138059	0.097094	0.281545	16445.685547
3738.138957	0.097233	0.281545	16533.000000
3738.139882	0.097229	0.281545	16622.937500
3738.140787	0.097255	0.281545	16710.953125
3738.141690	0.097247	0.281545	16798.767578
3738.142577	0.097222	0.281545	16885.003906
3738.143522	0.097280	0.281545	16976.933594
3738.144429	0.097240	0.281545	17065.130859
3738.145328	0.097225	0.281545	17152.537109
3739.114957	1.401489	0.251401	620.859741
3739.115851	1.917070	0.251401	2334.720703
3739.116829	1.877289	0.251401	4170.708984
3739.117742	1.821130	0.251401	5833.400879
3739.118652	1.763588	0.251401	7438.265625
3739.119546	1.708282	0.251401	8965.470703
3739.120509	1.654307	0.251401	10558.568359
3739.121428	1.603162	0.251401	12031.874023
3739.122323	1.554489	0.251401	13423.141602
3739.123260	1.506497	0.251401	14834.728516
3739.124173	1.431233	0.251401	16141.444336
3739.125083	0.279016	0.251401	16395.349609
3739.125977	0.097061	0.251401	16482.121094
3739.126929	0.097218	0.251401	16574.671875
3739.127832	0.097255	0.251401	16662.492187
3739.128733	0.097200	0.251401	16750.068359
3739.129653	0.097269	0.251401	16839.556641
3739.130569	0.097332	0.251401	16928.712891
3739.131483	0.097203	0.251401	17017.556641
3739.132373	0.097196	0.251401	17104.060547
3739.133301	0.097255	0.251401	17194.312500
3740.143578	1.417599	0.276332	629.413879
3740.144501	1.917290	0.276332	2399.072754
3740.145404	1.879486	0.276332	4096.249023
3740.146336	1.823401	0.276332	5795.658691
3740.147255	1.764650	0.276332	7417.372070
3740.148165	1.709619	0.276332	8973.125000
3740.149058	1.657570	0.276332	10453.334961
3740.150018	1.604894	0.276332	11994.033203
3740.150927	1.555580	0.276332	13408.054687
3740.151839	1.508342	0.276332	14783.663086
3740.152731	1.445676	0.276332	16073.206055
3740.153681	0.298828	0.276332	16357.092773
3740.154591	0.097086	0.276332	16445.441406
3740.155488	0.097159	0.276332	16532.593750
3740.156421	0.097159	0.276332	16623.244141
3740.157326	0.097163	0.276332	16711.175781
3740.158231	0.097159	0.276332	16799.105469
3740.159118	0.097225	0.276332	16885.343750
3740.160076	0.097192	0.276332	16978.453125
3740.160979	0.097170	0.276332	17066.197266
3740.161882	0.097207	0.276332	17153.974609
3741.130967	1.412684	0.246329	635.707947
3741.131860	1.917407	0.246329	2347.952637
3741.132790	1.879735	0.246329	4096.106445
3741.133737	1.821496	0.246329	5821.063477
3741.134649	1.763188	0.246329	7429.091309
3741.135557	1.708414	0.246329	8980.332031
3741.136500	1.654618	0.246329	10540.636719
3741.137415	1.603912	0.246329	12008.216797
3741.138318	1.555162	0.246329	13412.528320
3741.139213	1.508236	0.246329	14762.399414
3741.140170	1.439355	0.246329	16139.862305
3741.141092	0.280408	0.246329	16398.398437
3741.141982	0.097079	0.246329	16484.798828
3741.142906	0.097214	0.246329	16574.625000
3741.143819	0.097211	0.246329	16663.378906
3741.144717	0.097170	0.246329	16750.638672
3741.145607	0.097178	0.246329	16837.126953
3741.146536	0.097233	0.246329	16927.457031
3741.147442	0.097189	0.246329	17015.509766
3741.148348	0.097207	0.246329	17103.580078
3741.149232	0.097178	0.246329	17189.484375
3742.158793	1.392187	0.270350	605.601562
3742.159684	1.916096	0.270350	2312.843262
3742.160651	1.878571	0.270350	4129.420898
3742.161556	1.823002	0.270350	5779.237305
3742.162447	1.765609	0.270350	7352.395020
3742.163385	1.710022	0.270350	8956.395508
3742.164297	1.656628	0.270350	10467.240234
3742.165201	1.606860	0.270350	11919.841797
3742.166147	1.556605	0.270350	13392.390625
3742.167060	1.508566	0.270350	14769.710937
3742.167963	1.457948	0.270350	16086.238281
3742.168861	0.349021	0.270350	16399.658203
3742.169822	0.097042	0.270350	16492.916016
3742.170722	0.097068	0.270350	16580.277344
3742.171622	0.097174	0.270350	16667.734375
3742.172510	0.097196	0.270350	16754.044922
3742.173451	0.097178	0.270350	16845.488281
3742.174357	0.097130	0.270350	16933.488281
3742.175258	0.097159	0.270350	17021.029297
3742.176193	0.097218	0.270350	17111.927734
3742.177094	0.097229	0.270350	17199.531250
3743.146243	1.474508	0.245947	732.830505
3743.147165	1.917561	0.245947	2500.821777
3743.148076	1.875992	0.245947	4209.850586
3743.148972	1.820497	0.245947	5841.015625
3743.149928	1.760885	0.245947	7524.421875
3743.150840	1.705972	0.245947	9080.267578
3743.151739	1.654025	0.245947	10567.236328
3743.152689	1.602488	0.245947	12089.599609
3743.153604	1.552430	0.245947	13510.073242
3743.154506	1.505398	0.245947	14867.942383
3743.155405	1.435748	0.245947	16158.679687
3743.156349	0.249690	0.245947	16394.386719
3743.157264	0.097028	0.245947	16483.166016
3743.158165	0.097163	0.245947	16570.708984
3743.159052	0.097240	0.245947	16656.960937
3743.159996	0.097159	0.245947	16748.679687
3743.160905	0.097112	0.245947	16836.955078
3743.161798	0.097148	0.245947	16923.708984
3743.162728	0.097207	0.245947	17014.111328
3743.163627	0.097167	0.245947	17101.464844
3743.164518	0.097141	0.245947	17188.017578
3744.174303	1.425941	0.265806	644.525452
3744.175201	1.917367	0.265806	2366.321045
3744.176147	1.878428	0.265806	4143.313965
3744.177058	1.822372	0.265806	5803.495117
3744.177964	1.764910	0.265806	7402.503418
3744.178857	1.710491	0.265806	8929.971680
3744.179795	1.656310	0.265806	10483.589844
3744.180713	1.605776	0.265806	11957.692383
3744.181618	1.556576	0.265806	13366.393555
3744.182552	1.509137	0.265806	14775.927734
3744.183476	1.450419	0.265806	16116.114258
3744.184383	0.311375	0.265806	16398.531250
3744.185273	0.097072	0.265806	16484.925781
3744.186218	0.097189	0.265806	16576.769531
3744.187120	0.097130	0.265806	16664.380859
3744.188015	0.097240	0.265806	16751.410156
3744.188901	0.097214	0.265806	16837.542969
3744.189833	0.097291	0.265806	16928.218750
3744.190744	0.097134	0.265806	17016.707031
3744.191639	0.097145	0.265806	17103.652344
3744.192569	0.097185	0.265806	17194.035156
3745.162954	1.403606	0.241584	617.586609
3745.163917	1.917272	0.241584	2463.919189
3745.164829	1.876736	0.241584	4175.502441
3745.165725	1.821669	0.241584	5807.717773
3745.166665	1.763394	0.241584	7465.307617
3745.167597	1.706396	0.241584	9055.668945
3745.168508	1.653644	0.241584	10562.138672
3745.169403	1.604019	0.241584	11997.735352
3745.170358	1.552980	0.241584	13480.831055
3745.171278	1.505079	0.241584	14865.503906
3745.172202	1.419690	0.241584	16177.297852
3745.173096	0.262365	0.241584	16411.851562
3745.174028	0.097013	0.241584	16502.267578
3745.174930	0.097123	0.241584	16589.873047
3745.175821	0.097181	0.241584	16676.460937
3745.176756	0.097189	0.241584	16767.332031
3745.177660	0.097222	0.241584	16855.220703
3745.178580	0.097159	0.241584	16944.607422
3745.179470	0.097233	0.241584	17031.144531
3745.180418	0.097211	0.241584	17123.300781
3745.181332	0.097141	0.241584	17212.087891
3746.190296	1.424026	0.260521	637.963623
3746.191201	1.917426	0.260521	2373.233887
3746.192095	1.879318	0.260521	4053.343750
3746.193073	1.820903	0.260521	5834.187012
3746.193987	1.763236	0.260521	7445.784668
3746.194892	1.708454	0.260521	8991.935547
3746.195824	1.655222	0.260521	10534.602539
3746.196736	1.604264	0.260521	11997.691406
3746.197639	1.555492	0.260521	13402.300781
3746.198532	1.509005	0.260521	14749.842773
3746.199470	1.447679	0.260521	16107.765625
3746.200386	0.303197	0.260521	16385.494141
3746.201289	0.097075	0.260521	16473.152344
3746.202189	0.097104	0.260521	16560.546875
3746.203139	0.097280	0.260521	16652.962891
3746.204049	0.097104	0.260521	16741.328125
3746.204951	0.097137	0.260521	16828.945312
3746.205878	0.097152	0.260521	16919.005859
3746.206779	0.097163	0.260521	17006.548828
3746.207676	0.097115	0.260521	17093.662109
3746.208563	0.097174	0.260521	17179.855469
3747.177924	1.390115	0.242462	600.529541
3747.178862	1.915983	0.242462	2397.721191
3747.179791	1.878164	0.242462	4142.535645
3747.180711	1.821555	0.242462	5818.366211
3747.181613	1.764408	0.242462	7409.862305
3747.182552	1.707682	0.242462	9013.375977
3747.183464	1.654735	0.242462	10522.494141
3747.184377	1.604528	0.242462	11987.427734
3747.185282	1.555188	0.242462	13394.873047
3747.186239	1.506357	0.242462	14836.457031
3747.187152	1.434814	0.242462	16146.442383
3747.188064	0.275101	0.242462	16397.333984
3747.189001	0.097159	0.242462	16488.373047
3747.189904	0.097262	0.242462	16576.201172
3747.190797	0.097156	0.242462	16662.960937
3747.191684	0.097189	0.242462	16749.167969
3747.192622	0.097233	0.242462	16840.373047
3747.193532	0.097203	0.242462	16928.828125
3747.194431	0.097192	0.242462	17016.203125
3747.195323	0.097192	0.242462	17102.898437
3747.196271	0.097244	0.242462	17195.085937
3748.205574	1.434265	0.257573	717.132568
3748.206502	1.917649	0.257573	2496.710937
3748.207407	1.876132	0.257573	4194.610352
3748.208306	1.820482	0.257573	5831.223633
3748.209262	1.760358	0.257573	7514.125488
3748.210174	1.705338	0.257573	9069.393555
3748.211078	1.653267	0.257573	10563.946289
3748.211972	1.602931	0.257573	11996.966797
3748.212914	1.553082	0.257573	13459.970703
3748.213829	1.505588	0.257573	14837.583984
3748.214734	1.433141	0.257573	16134.576172
3748.215675	0.268048	0.257573	16386.808594
3748.216584	0.097094	0.257573	16475.066406
3748.217484	0.097174	0.257573	16562.523437
3748.218372	0.097134	0.257573	16648.777344
3748.219326	0.097200	0.257573	16741.505859
3748.220233	0.097240	0.257573	16829.703125
3748.221126	0.097240	0.257573	16916.539062
3748.222033	0.097196	0.257573	17004.695312
3748.222964	0.097255	0.257573	17095.240234
3748.223878	0.097137	0.257573	17184.023437
3749.193936	1.401537	0.241503	615.274719
3749.194832	1.916920	0.241503	2332.835205
3749.195773	1.879149	0.241503	4101.114258
3749.196692	1.822808	0.241503	5776.274414
3749.197600	1.765140	0.241503	7379.021973
3749.198494	1.710282	0.241503	8908.013672
3749.199451	1.655706	0.241503	10492.523437
3749.200370	1.605092	0.241503	11967.602539
3749.201268	1.556309	0.241503	13365.167969
3749.202201	1.508668	0.241503	14772.755859
3749.203111	1.451536	0.241503	16093.653320
3749.204019	0.325203	0.241503	16388.937500
3749.204907	0.097119	0.241503	16475.179687
3749.205844	0.097170	0.241503	16566.228516
3749.206749	0.097178	0.241503	16654.173828
3749.207657	0.097185	0.241503	16742.417969
3749.208544	0.097134	0.241503	16828.576172
3749.209482	0.097225	0.241503	16919.773437
3749.210396	0.097214	0.241503	17008.626953
3749.211291	0.097170	0.241503	17095.593750
3749.212224	0.097214	0.241503	17186.294922
3750.221263	1.403679	0.251735	617.618896
3750.222157	1.916257	0.251735	2330.752930
3750.223128	1.877486	0.251735	4153.791992
3750.224036	1.821573	0.251735	5807.780762
3750.224931	1.764976	0.251735	7387.433594
3750.225866	1.709345	0.251735	8985.670898
3750.226777	1.655933	0.251735	10494.225586
3750.227675	1.606450	0.251735	11936.818359
3750.228567	1.557817	0.251735	13326.391602
3750.229511	1.508895	0.251735	14750.789062
3750.230434	1.453510	0.251735	16092.378906
3750.231340	0.328473	0.251735	16389.974609
3750.232238	0.097083	0.251735	16477.154297
3750.233183	0.097339	0.251735	16569.138672
3750.234092	0.097214	0.251735	16657.505859
3750.234979	0.097277	0.251735	16743.791016
3750.235918	0.097251	0.251735	16835.109375
3750.236826	0.097247	0.251735	16923.410156
3750.237727	0.097233	0.251735	17011.017578
3750.238611	0.097251	0.251735	17096.988281
3750.239551	0.097247	0.251735	17188.400391
3751.209954	1.425399	0.246829	647.131226
3751.210854	1.917111	0.246829	2372.530762
3751.211784	1.878926	0.246829	4119.931641
3751.212705	1.822339	0.246829	5798.305664
3751.213616	1.763793	0.246829	7405.120605
3751.214525	1.709139	0.246829	8958.728516
3751.215458	1.655497	0.246829	10503.306641
3751.216372	1.604612	0.246829	11969.921875
3751.217278	1.555836	0.246829	13379.509766
3751.218174	1.509060	0.246829	14731.627930
3751.219133	1.447690	0.246829	16119.962891
3751.220049	0.300754	0.246829	16395.453125
3751.220941	0.097086	0.246829	16482.054687
3751.221876	0.097269	0.246829	16573.001953
3751.222777	0.097229	0.246829	16660.605469
3751.223679	0.097189	0.246829	16748.269531
3751.224575	0.097291	0.246829	16835.443359
3751.225512	0.097251	0.246829	16926.568359
3751.226419	0.097273	0.246829	17014.794922
3751.227326	0.097159	0.246829	17102.917969
3751.228213	0.097189	0.246829	17189.125000
3752.235985	1.410835	0.248561	622.178223
3752.236901	1.916788	0.248561	2377.956055
3752.237809	1.879270	0.248561	4084.333252
3752.238749	1.822083	0.248561	5797.090820
3752.239661	1.764130	0.248561	7405.977051
3752.240571	1.709429	0.248561	8961.556641
3752.241465	1.656577	0.248561	10442.537109
3752.242424	1.604718	0.248561	11981.461914
3752.243337	1.555422	0.248561	13401.562500
3752.244238	1.508584	0.248561	14760.796875
3752.245175	1.447482	0.248561	16117.086914
3752.246086	0.299791	0.248561	16390.197266
3752.246984	0.097072	0.248561	16477.367187
3752.247868	0.097167	0.248561	16563.261719
3752.248807	0.097181	0.248561	16654.515625
3752.249707	0.097192	0.248561	16741.988281
3752.250610	0.097214	0.248561	16829.773437
3752.251497	0.097185	0.248561	16915.976562
3752.252456	0.097277	0.248561	17009.265625
3752.253362	0.097126	0.248561	17097.261719
3752.254258	0.097196	0.248561	17184.349609
3753.226955	1.396692	0.251679	611.751038
3753.227850	1.916415	0.251679	2326.942383
3753.228831	1.876842	0.251679	4168.124512
3753.229756	1.819871	0.251679	5851.504883
3753.230661	1.762456	0.251679	7446.527344
3753.231579	1.707590	0.251679	9014.095703
3753.232492	1.654559	0.251679	10524.708008
3753.233408	1.603945	0.251679	11993.921875
3753.234306	1.555627	0.251679	13390.875000
3753.235244	1.506881	0.251679	14804.329102
3753.236162	1.437806	0.251679	16124.235352
3753.237072	0.291226	0.251679	16389.250000
3753.237963	0.097072	0.251679	16475.740234
3753.238912	0.097247	0.251679	16568.027344
3753.239818	0.097229	0.251679	16656.117187
3753.240711	0.097159	0.251679	16742.880859
3753.241632	0.097159	0.251679	16832.365234
3753.242540	0.097181	0.251679	16920.605469
3753.243449	0.097181	0.251679	17008.943359
3753.244339	0.097163	0.251679	17095.417969
3753.245270	0.097269	0.251679	17185.976562
3754.251220	1.408909	0.248259	632.600037
3754.252117	1.916983	0.248259	2352.133301
3754.253072	1.878040	0.248259	4145.661133
3754.253992	1.820944	0.248259	5820.929199
3754.254917	1.762775	0.248259	7451.495605
3754.255811	1.708491	0.248259	8978.886719
3754.256767	1.653629	0.248259	10559.755859
3754.257698	1.602195	0.248259	12051.399414
3754.258593	1.553763	0.248259	13442.017578
3754.259524	1.505501	0.248259	14843.638672
3754.260437	1.414797	0.248259	16135.348633
3754.261365	0.253693	0.248259	16370.775391
3754.262250	0.097079	0.248259	16456.689453
3754.263214	0.097145	0.248259	16550.337891
3754.264122	0.097203	0.248259	16638.597656
3754.265014	0.097214	0.248259	16725.312500
3754.265958	0.097192	0.248259	16817.062500
3754.266867	0.097255	0.248259	16905.466797
3754.267782	0.097185	0.248259	16994.390625
3754.268669	0.097156	0.248259	17080.568359
3754.269601	0.097280	0.248259	17171.234375
3755.242754	1.462353	0.253605	712.166138
3755.243658	1.917041	0.253605	2445.171143
3755.244579	1.876864	0.253605	4173.762695
3755.245475	1.820911	0.253605	5805.298828
3755.246432	1.761097	0.253605	7490.668945
3755.247342	1.706276	0.253605	9043.379883
3755.248241	1.654182	0.253605	10530.489258
3755.249175	1.603433	0.253605	12028.095703
3755.250087	1.553829	0.253605	13445.187500
3755.251016	1.506160	0.253605	14844.410156
3755.251915	1.422938	0.253605	16123.631836
3755.252879	0.249961	0.253605	16364.593750
3755.253767	0.097068	0.253605	16450.789062
3755.254656	0.097233	0.253605	16537.228516
3755.255571	0.097134	0.253605	16626.105469
3755.256509	0.097035	0.253605	16717.125000
3755.257412	0.097156	0.253605	16804.857422
3755.258298	0.097185	0.253605	16890.962891
3755.259234	0.097130	0.253605	16981.876953
3755.260149	0.097097	0.253605	17070.720703
3755.261068	0.097189	0.253605	17160.037109
3756.264955	1.460391	0.248424	708.289490
3756.265880	1.917140	0.248424	2481.643799
3756.266788	1.876296	0.248424	4185.320801
3756.267680	1.820826	0.248424	5809.498047
3756.268648	1.760515	0.248424	7513.676758
3756.269565	1.705177	0.248424	9077.324219
3756.270474	1.652743	0.248424	10579.667969
3756.271407	1.602147	0.248424	12074.471680
3756.272321	1.552482	0.248424	13493.439453
3756.273226	1.505489	0.248424	14855.907227
3756.274117	1.434108	0.248424	16133.697266
3756.275068	0.251093	0.248424	16372.486328
3756.275974	0.097046	0.248424	16460.410156
3756.276881	0.097145	0.248424	16548.519531
3756.277768	0.097233	0.248424	16634.765625
3756.278713	0.097328	0.248424	16726.740234
3756.279620	0.097152	0.248424	16814.857422
3756.280520	0.097141	0.248424	16902.285156
3756.281452	0.097255	0.248424	16992.925781
3756.282349	0.097295	0.248424	17080.199219
3756.283246	0.097200	0.248424	17167.386719
3757.259742	1.429318	0.256271	644.622253
3757.260638	1.916931	0.256271	2362.192627
3757.261598	1.877055	0.256271	4164.165039
3757.262518	1.820380	0.256271	5838.914062
3757.263423	1.763291	0.256271	7434.692383
3757.264313	1.708740	0.256271	8955.470703
3757.265248	1.655039	0.256271	10502.932617
3757.266165	1.604744	0.256271	11974.482422
3757.267066	1.555862	0.256271	13376.314453
3757.268007	1.508159	0.256271	14795.492187
3757.268920	1.446039	0.256271	16115.725586
3757.269836	0.299714	0.256271	16390.263672
3757.270725	0.097094	0.256271	16476.580078
3757.271679	0.097247	0.256271	16569.353516
3757.272580	0.097222	0.256271	16656.951172
3757.273483	0.097214	0.256271	16744.736328
3757.274369	0.097225	0.256271	16830.878906
3757.275303	0.097339	0.256271	16921.792969
3757.276215	0.097236	0.256271	17010.472656
3757.277111	0.097218	0.256271	17097.580078
3757.278039	0.097251	0.256271	17187.828125
3758.280390	1.389891	0.243804	603.212891
3758.281332	1.916338	0.243804	2408.403320
3758.282252	1.877527	0.243804	4135.728027
3758.283166	1.821519	0.243804	5800.595703
3758.284061	1.764514	0.243804	7379.835937
3758.285007	1.708129	0.243804	8995.725586
3758.285918	1.655332	0.243804	10503.733398
3758.286817	1.605571	0.243804	11947.141602
3758.287750	1.555609	0.243804	13398.525391
3758.288670	1.507438	0.243804	14785.368164
3758.289589	1.444358	0.243804	16112.733398
3758.290492	0.307167	0.243804	16390.105469
3758.291412	0.097115	0.243804	16479.451172
3758.292319	0.097174	0.243804	16567.587891
3758.293226	0.097163	0.243804	16655.714844
3758.294114	0.097192	0.243804	16742.021484
3758.295058	0.097181	0.243804	16833.759766
3758.295967	0.097167	0.243804	16922.083984
3758.296855	0.097145	0.243804	17008.347656
3758.297777	0.097236	0.243804	17098.000000
3758.298690	0.097280	0.243804	17186.816406
3759.276262	1.432555	0.258894	653.245056
3759.277162	1.916737	0.258894	2378.308350
3759.278056	1.880109	0.258894	4059.125488
3759.279015	1.821592	0.258894	5806.032227
3759.279922	1.763335	0.258894	7405.376953
3759.280839	1.708286	0.258894	8971.875000
3759.281742	1.655178	0.258894	10466.500977
3759.282713	1.602850	0.258894	12022.869141
3759.283621	1.553936	0.258894	13433.842773
3759.284512	1.507749	0.258894	14777.247070
3759.285453	1.438759	0.258894	16131.119141
3759.286384	0.275468	0.258894	16387.580078
3759.287302	0.097119	0.258894	16476.736328
3759.288193	0.097203	0.258894	16563.343750
3759.289139	0.097189	0.258894	16655.285156
3759.290038	0.097178	0.258894	16742.648437
3759.290924	0.097203	0.258894	16828.771484
3759.291841	0.097200	0.258894	16917.904297
3759.292770	0.097178	0.258894	17008.181641
3759.293674	0.097152	0.258894	17096.007812
3759.294565	0.097137	0.258894	17182.556641
3760.293836	1.401713	0.248380	615.351868
3760.294807	1.917235	0.248380	2476.987305
3760.295726	1.875601	0.248380	4200.664062
3760.296634	1.819545	0.248380	5852.810547
3760.297558	1.761881	0.248380	7480.788574
3760.298476	1.706140	0.248380	9047.025391
3760.299391	1.653252	0.248380	10559.750977
3760.300289	1.603250	0.248380	11999.468750
3760.301227	1.553196	0.248380	13456.366211
3760.302140	1.505603	0.248380	14830.981445
3760.303045	1.439403	0.248380	16133.641602
3760.303942	0.295854	0.248380	16399.023437
3760.304893	0.097108	0.248380	16491.373047
3760.305802	0.097240	0.248380	16579.763672
3760.306702	0.097141	0.248380	16667.191406
3760.307637	0.097299	0.248380	16758.166016
3760.308535	0.097159	0.248380	16845.416016
3760.309445	0.097152	0.248380	16933.824219
3760.310335	0.097104	0.248380	17020.248047
3760.311274	0.097159	0.248380	17111.480469
3760.312182	0.097240	0.248380	17199.773437
3761.291741	1.421693	0.259188	638.340210
3761.292667	1.916525	0.259188	2413.041992
3761.293565	1.878409	0.259188	4099.853516
3761.294500	1.821379	0.259188	5802.843262
3761.295412	1.763525	0.259188	7411.178223
3761.296322	1.708737	0.259188	8966.128906
3761.297219	1.655805	0.259188	10451.385742
3761.298170	1.604341	0.259188	11977.114258
3761.299083	1.555074	0.259188	13396.897461
3761.299986	1.508210	0.259188	14758.811523
3761.300925	1.448313	0.259188	16118.777344
3761.301838	0.304215	0.259188	16396.525391
3761.302735	0.097002	0.259188	16483.537109
3761.303622	0.097152	0.259188	16569.710937
3761.304553	0.097284	0.259188	16660.283203
3761.305455	0.097266	0.259188	16748.017578
3761.306356	0.097203	0.259188	16835.597656
3761.307244	0.097200	0.259188	16921.910156
3761.308202	0.097255	0.259188	17015.080078
3761.309116	0.097163	0.259188	17103.886719
3761.310012	0.097152	0.259188	17190.935547
3762.307584	1.457563	0.248368	721.493896
3762.308496	1.917074	0.248368	2469.865234
3762.309402	1.876593	0.248368	4170.058594
3762.310297	1.821024	0.248368	5799.875000
3762.311258	1.760954	0.248368	7492.152344
3762.312174	1.705891	0.248368	9054.749023
3762.313076	1.653402	0.248368	10546.117187
3762.313996	1.603151	0.248368	12021.015625
3762.314917	1.553522	0.248368	13451.809570
3762.315826	1.506152	0.248368	14820.902344
3762.316729	1.442549	0.248368	16123.523437
3762.317675	0.275449	0.248368	16384.097656
3762.318582	0.097126	0.248368	16472.191406
3762.319489	0.097152	0.248368	16560.308594
3762.320379	0.097108	0.248368	16646.734375
3762.321321	0.097295	0.248368	16738.386719
3762.322233	0.097174	0.248368	16827.009766
3762.323123	0.097174	0.248368	16913.494141
3762.324048	0.097200	0.248368	17003.404297
3762.324951	0.097218	0.248368	17091.191406
3762.325862	0.097130	0.248368	17179.677734
